Temperature (K)	Pressure (MPa)	Density (kg/m3)	Volume (m3/kg)	Internal Energy (kJ/kg)	Enthalpy (kJ/kg)	Entropy (J/g*K)	Cv (J/g*K)	Cp (J/g*K)	Sound Spd. (m/s)	Joule-Thomson (K/MPa)	Viscosity (Pa*s)	Therm. Cond. (W/m*K)	Phase
100.00	0.10000	4.9152	0.20345	30.344	50.689	3.2991	0.32058	0.54702	184.16	25.048	8.1989e-06	0.0063534	0
101.00	0.10000	4.8633	0.20562	30.674	51.236	3.3045	0.32022	0.54608	185.15	24.571	8.2820e-06	0.0064202	0
102.00	0.10000	4.8126	0.20779	31.003	51.782	3.3099	0.31989	0.54520	186.13	24.111	8.3651e-06	0.0064870	0
103.00	0.10000	4.7630	0.20995	31.331	52.326	3.3152	0.31957	0.54435	187.11	23.666	8.4480e-06	0.0065537	0
104.00	0.10000	4.7144	0.21212	31.659	52.870	3.3205	0.31927	0.54355	188.08	23.235	8.5308e-06	0.0066203	0
105.00	0.10000	4.6669	0.21428	31.986	53.413	3.3256	0.31899	0.54279	189.04	22.817	8.6135e-06	0.0066868	0
106.00	0.10000	4.6204	0.21643	32.313	53.956	3.3308	0.31872	0.54206	189.99	22.413	8.6962e-06	0.0067532	0
107.00	0.10000	4.5748	0.21859	32.639	54.498	3.3359	0.31847	0.54137	190.94	22.021	8.7787e-06	0.0068196	0
108.00	0.10000	4.5302	0.22074	32.964	55.039	3.3409	0.31823	0.54071	191.89	21.641	8.8611e-06	0.0068857	0
109.00	0.10000	4.4865	0.22289	33.290	55.579	3.3459	0.31800	0.54008	192.83	21.272	8.9433e-06	0.0069518	0
110.00	0.10000	4.4436	0.22504	33.615	56.119	3.3508	0.31778	0.53948	193.76	20.914	9.0255e-06	0.0070177	0
111.00	0.10000	4.4016	0.22719	33.939	56.658	3.3557	0.31758	0.53891	194.69	20.567	9.1076e-06	0.0070835	0
112.00	0.10000	4.3604	0.22934	34.263	57.197	3.3605	0.31738	0.53836	195.61	20.229	9.1895e-06	0.0071491	0
113.00	0.10000	4.3200	0.23148	34.587	57.735	3.3653	0.31719	0.53784	196.52	19.901	9.2714e-06	0.0072146	0
114.00	0.10000	4.2804	0.23362	34.910	58.272	3.3700	0.31702	0.53733	197.43	19.583	9.3531e-06	0.0072800	0
115.00	0.10000	4.2416	0.23576	35.233	58.809	3.3747	0.31685	0.53685	198.34	19.273	9.4347e-06	0.0073452	0
116.00	0.10000	4.2034	0.23790	35.556	59.346	3.3794	0.31669	0.53639	199.24	18.971	9.5162e-06	0.0074102	0
117.00	0.10000	4.1660	0.24004	35.878	59.882	3.3840	0.31654	0.53595	200.14	18.678	9.5976e-06	0.0074752	0
118.00	0.10000	4.1292	0.24218	36.200	60.418	3.3885	0.31639	0.53552	201.03	18.392	9.6789e-06	0.0075399	0
119.00	0.10000	4.0931	0.24431	36.522	60.953	3.3931	0.31625	0.53511	201.92	18.114	9.7600e-06	0.0076046	0
120.00	0.10000	4.0577	0.24645	36.844	61.488	3.3975	0.31612	0.53472	202.80	17.843	9.8411e-06	0.0076691	0
121.00	0.10000	4.0229	0.24858	37.165	62.023	3.4020	0.31599	0.53435	203.68	17.579	9.9220e-06	0.0077334	0
122.00	0.10000	3.9887	0.25071	37.486	62.557	3.4064	0.31587	0.53398	204.55	17.322	1.0003e-05	0.0077976	0
123.00	0.10000	3.9551	0.25284	37.807	63.091	3.4107	0.31575	0.53363	205.42	17.071	1.0084e-05	0.0078617	0
124.00	0.10000	3.9220	0.25497	38.127	63.624	3.4151	0.31564	0.53330	206.28	16.826	1.0164e-05	0.0079257	0
125.00	0.10000	3.8896	0.25710	38.448	64.157	3.4193	0.31553	0.53298	207.15	16.587	1.0245e-05	0.0079895	0
126.00	0.10000	3.8577	0.25922	38.768	64.690	3.4236	0.31543	0.53266	208.00	16.354	1.0325e-05	0.0080532	0
127.00	0.10000	3.8263	0.26135	39.088	65.223	3.4278	0.31533	0.53236	208.86	16.127	1.0405e-05	0.0081167	0
128.00	0.10000	3.7954	0.26347	39.407	65.755	3.4320	0.31524	0.53208	209.70	15.905	1.0485e-05	0.0081801	0
129.00	0.10000	3.7651	0.26560	39.727	66.287	3.4361	0.31515	0.53180	210.55	15.688	1.0565e-05	0.0082434	0
130.00	0.10000	3.7352	0.26772	40.046	66.818	3.4402	0.31506	0.53153	211.39	15.476	1.0645e-05	0.0083066	0
131.00	0.10000	3.7058	0.26984	40.365	67.350	3.4443	0.31498	0.53127	212.23	15.269	1.0725e-05	0.0083696	0
132.00	0.10000	3.6769	0.27197	40.684	67.881	3.4483	0.31490	0.53101	213.06	15.066	1.0804e-05	0.0084325	0
133.00	0.10000	3.6485	0.27409	41.003	68.412	3.4523	0.31482	0.53077	213.89	14.869	1.0884e-05	0.0084953	0
134.00	0.10000	3.6205	0.27621	41.322	68.942	3.4563	0.31475	0.53054	214.72	14.675	1.0963e-05	0.0085580	0
135.00	0.10000	3.5929	0.27832	41.640	69.473	3.4602	0.31468	0.53031	215.54	14.486	1.1043e-05	0.0086205	0
136.00	0.10000	3.5658	0.28044	41.959	70.003	3.4642	0.31461	0.53009	216.36	14.301	1.1122e-05	0.0086829	0
137.00	0.10000	3.5391	0.28256	42.277	70.533	3.4680	0.31454	0.52988	217.18	14.120	1.1201e-05	0.0087452	0
138.00	0.10000	3.5128	0.28468	42.595	71.063	3.4719	0.31448	0.52967	217.99	13.942	1.1280e-05	0.0088074	0
139.00	0.10000	3.4868	0.28679	42.913	71.592	3.4757	0.31442	0.52947	218.80	13.769	1.1359e-05	0.0088695	0
140.00	0.10000	3.4613	0.28891	43.231	72.122	3.4795	0.31436	0.52928	219.60	13.599	1.1437e-05	0.0089314	0
141.00	0.10000	3.4362	0.29102	43.549	72.651	3.4833	0.31430	0.52909	220.41	13.432	1.1516e-05	0.0089933	0
142.00	0.10000	3.4114	0.29314	43.866	73.180	3.4870	0.31425	0.52891	221.21	13.269	1.1594e-05	0.0090550	0
143.00	0.10000	3.3870	0.29525	44.184	73.709	3.4907	0.31420	0.52873	222.00	13.110	1.1673e-05	0.0091166	0
144.00	0.10000	3.3629	0.29736	44.501	74.237	3.4944	0.31415	0.52856	222.80	12.953	1.1751e-05	0.0091781	0
145.00	0.10000	3.3392	0.29948	44.818	74.766	3.4981	0.31410	0.52840	223.59	12.800	1.1829e-05	0.0092395	0
146.00	0.10000	3.3158	0.30159	45.135	75.294	3.5017	0.31405	0.52824	224.37	12.649	1.1907e-05	0.0093008	0
147.00	0.10000	3.2927	0.30370	45.452	75.822	3.5053	0.31400	0.52808	225.16	12.502	1.1985e-05	0.0093620	0
148.00	0.10000	3.2700	0.30581	45.769	76.350	3.5089	0.31396	0.52793	225.94	12.357	1.2063e-05	0.0094231	0
149.00	0.10000	3.2476	0.30792	46.086	76.878	3.5124	0.31392	0.52778	226.72	12.215	1.2140e-05	0.0094840	0
150.00	0.10000	3.2255	0.31003	46.403	77.406	3.5160	0.31388	0.52764	227.49	12.076	1.2218e-05	0.0095449	0
151.00	0.10000	3.2037	0.31214	46.720	77.934	3.5195	0.31384	0.52750	228.27	11.939	1.2295e-05	0.0096056	0
152.00	0.10000	3.1822	0.31425	47.036	78.461	3.5230	0.31380	0.52737	229.04	11.805	1.2373e-05	0.0096663	0
153.00	0.10000	3.1610	0.31635	47.353	78.988	3.5264	0.31376	0.52724	229.80	11.674	1.2450e-05	0.0097268	0
154.00	0.10000	3.1401	0.31846	47.669	79.515	3.5298	0.31372	0.52711	230.57	11.544	1.2527e-05	0.0097873	0
155.00	0.10000	3.1194	0.32057	47.985	80.042	3.5333	0.31369	0.52698	231.33	11.418	1.2604e-05	0.0098476	0
156.00	0.10000	3.0991	0.32268	48.302	80.569	3.5366	0.31365	0.52686	232.09	11.293	1.2681e-05	0.0099079	0
157.00	0.10000	3.0790	0.32478	48.618	81.096	3.5400	0.31362	0.52674	232.84	11.171	1.2757e-05	0.0099680	0
158.00	0.10000	3.0591	0.32689	48.934	81.623	3.5434	0.31359	0.52663	233.60	11.051	1.2834e-05	0.010028	0
159.00	0.10000	3.0396	0.32899	49.250	82.149	3.5467	0.31356	0.52652	234.35	10.933	1.2911e-05	0.010088	0
160.00	0.10000	3.0202	0.33110	49.566	82.676	3.5500	0.31353	0.52641	235.10	10.817	1.2987e-05	0.010148	0
161.00	0.10000	3.0012	0.33320	49.882	83.202	3.5533	0.31350	0.52630	235.84	10.703	1.3063e-05	0.010208	0
162.00	0.10000	2.9823	0.33531	50.198	83.729	3.5565	0.31347	0.52620	236.59	10.591	1.3139e-05	0.010267	0
163.00	0.10000	2.9637	0.33741	50.513	84.255	3.5598	0.31344	0.52610	237.33	10.480	1.3215e-05	0.010327	0
164.00	0.10000	2.9454	0.33952	50.829	84.781	3.5630	0.31342	0.52600	238.07	10.372	1.3291e-05	0.010386	0
165.00	0.10000	2.9272	0.34162	51.145	85.307	3.5662	0.31339	0.52591	238.80	10.266	1.3367e-05	0.010446	0
166.00	0.10000	2.9093	0.34372	51.460	85.833	3.5694	0.31337	0.52581	239.54	10.161	1.3443e-05	0.010505	0
167.00	0.10000	2.8916	0.34583	51.776	86.358	3.5725	0.31334	0.52572	240.27	10.058	1.3518e-05	0.010564	0
168.00	0.10000	2.8742	0.34793	52.091	86.884	3.5756	0.31332	0.52563	241.00	9.9567	1.3594e-05	0.010623	0
169.00	0.10000	2.8569	0.35003	52.407	87.410	3.5788	0.31330	0.52555	241.72	9.8571	1.3669e-05	0.010682	0
170.00	0.10000	2.8398	0.35213	52.722	87.935	3.5819	0.31327	0.52546	242.45	9.7590	1.3745e-05	0.010741	0
171.00	0.10000	2.8230	0.35423	53.037	88.461	3.5849	0.31325	0.52538	243.17	9.6625	1.3820e-05	0.010800	0
172.00	0.10000	2.8064	0.35633	53.352	88.986	3.5880	0.31323	0.52530	243.89	9.5676	1.3895e-05	0.010858	0
173.00	0.10000	2.7899	0.35843	53.668	89.511	3.5911	0.31321	0.52522	244.61	9.4741	1.3970e-05	0.010917	0
174.00	0.10000	2.7737	0.36054	53.983	90.036	3.5941	0.31319	0.52514	245.32	9.3821	1.4044e-05	0.010975	0
175.00	0.10000	2.7576	0.36264	54.298	90.561	3.5971	0.31317	0.52507	246.03	9.2915	1.4119e-05	0.011034	0
176.00	0.10000	2.7417	0.36474	54.613	91.086	3.6001	0.31315	0.52500	246.74	9.2023	1.4194e-05	0.011092	0
177.00	0.10000	2.7260	0.36684	54.928	91.611	3.6031	0.31313	0.52492	247.45	9.1145	1.4268e-05	0.011150	0
178.00	0.10000	2.7105	0.36893	55.243	92.136	3.6060	0.31312	0.52485	248.16	9.0280	1.4343e-05	0.011209	0
179.00	0.10000	2.6952	0.37103	55.558	92.661	3.6090	0.31310	0.52479	248.87	8.9428	1.4417e-05	0.011267	0
180.00	0.10000	2.6800	0.37313	55.873	93.186	3.6119	0.31308	0.52472	249.57	8.8588	1.4491e-05	0.011325	0
181.00	0.10000	2.6650	0.37523	56.187	93.711	3.6148	0.31307	0.52465	250.27	8.7761	1.4565e-05	0.011382	0
182.00	0.10000	2.6502	0.37733	56.502	94.235	3.6177	0.31305	0.52459	250.97	8.6947	1.4639e-05	0.011440	0
183.00	0.10000	2.6355	0.37943	56.817	94.760	3.6206	0.31303	0.52453	251.66	8.6144	1.4713e-05	0.011498	0
184.00	0.10000	2.6211	0.38153	57.132	95.284	3.6234	0.31302	0.52447	252.36	8.5353	1.4786e-05	0.011556	0
185.00	0.10000	2.6067	0.38362	57.446	95.809	3.6263	0.31300	0.52441	253.05	8.4573	1.4860e-05	0.011613	0
186.00	0.10000	2.5925	0.38572	57.761	96.333	3.6291	0.31299	0.52435	253.74	8.3805	1.4933e-05	0.011670	0
187.00	0.10000	2.5785	0.38782	58.076	96.857	3.6319	0.31298	0.52429	254.43	8.3047	1.5007e-05	0.011728	0
188.00	0.10000	2.5647	0.38992	58.390	97.382	3.6347	0.31296	0.52423	255.11	8.2300	1.5080e-05	0.011785	0
189.00	0.10000	2.5509	0.39201	58.705	97.906	3.6375	0.31295	0.52418	255.80	8.1564	1.5153e-05	0.011842	0
190.00	0.10000	2.5374	0.39411	59.019	98.430	3.6402	0.31294	0.52412	256.48	8.0838	1.5226e-05	0.011899	0
191.00	0.10000	2.5239	0.39621	59.334	98.954	3.6430	0.31292	0.52407	257.16	8.0122	1.5299e-05	0.011956	0
192.00	0.10000	2.5107	0.39830	59.648	99.478	3.6457	0.31291	0.52402	257.84	7.9416	1.5372e-05	0.012013	0
193.00	0.10000	2.4975	0.40040	59.962	100.00	3.6484	0.31290	0.52397	258.52	7.8719	1.5445e-05	0.012070	0
194.00	0.10000	2.4845	0.40249	60.277	100.53	3.6511	0.31289	0.52392	259.19	7.8032	1.5518e-05	0.012127	0
195.00	0.10000	2.4716	0.40459	60.591	101.05	3.6538	0.31287	0.52387	259.87	7.7355	1.5590e-05	0.012183	0
196.00	0.10000	2.4589	0.40668	60.905	101.57	3.6565	0.31286	0.52382	260.54	7.6686	1.5662e-05	0.012240	0
197.00	0.10000	2.4463	0.40878	61.220	102.10	3.6592	0.31285	0.52378	261.21	7.6026	1.5735e-05	0.012297	0
198.00	0.10000	2.4338	0.41088	61.534	102.62	3.6618	0.31284	0.52373	261.88	7.5375	1.5807e-05	0.012353	0
199.00	0.10000	2.4215	0.41297	61.848	103.15	3.6645	0.31283	0.52369	262.54	7.4733	1.5879e-05	0.012409	0
200.00	0.10000	2.4093	0.41506	62.162	103.67	3.6671	0.31282	0.52364	263.21	7.4099	1.5951e-05	0.012465	0
201.00	0.10000	2.3972	0.41716	62.476	104.19	3.6697	0.31281	0.52360	263.87	7.3473	1.6023e-05	0.012522	0
202.00	0.10000	2.3852	0.41925	62.790	104.72	3.6723	0.31280	0.52356	264.53	7.2855	1.6095e-05	0.012578	0
203.00	0.10000	2.3733	0.42135	63.105	105.24	3.6749	0.31279	0.52351	265.19	7.2245	1.6166e-05	0.012634	0
204.00	0.10000	2.3616	0.42344	63.419	105.76	3.6775	0.31278	0.52347	265.85	7.1644	1.6238e-05	0.012690	0
205.00	0.10000	2.3500	0.42554	63.733	106.29	3.6800	0.31277	0.52343	266.50	7.1049	1.6310e-05	0.012745	0
206.00	0.10000	2.3385	0.42763	64.047	106.81	3.6826	0.31276	0.52339	267.16	7.0462	1.6381e-05	0.012801	0
207.00	0.10000	2.3271	0.42972	64.361	107.33	3.6851	0.31276	0.52336	267.81	6.9883	1.6452e-05	0.012857	0
208.00	0.10000	2.3158	0.43182	64.675	107.86	3.6876	0.31275	0.52332	268.46	6.9311	1.6523e-05	0.012912	0
209.00	0.10000	2.3046	0.43391	64.989	108.38	3.6901	0.31274	0.52328	269.11	6.8745	1.6595e-05	0.012968	0
210.00	0.10000	2.2936	0.43600	65.303	108.90	3.6926	0.31273	0.52324	269.76	6.8187	1.6666e-05	0.013023	0
211.00	0.10000	2.2826	0.43810	65.617	109.43	3.6951	0.31272	0.52321	270.41	6.7636	1.6736e-05	0.013079	0
212.00	0.10000	2.2717	0.44019	65.930	109.95	3.6976	0.31271	0.52317	271.05	6.7091	1.6807e-05	0.013134	0
213.00	0.10000	2.2610	0.44228	66.244	110.47	3.7001	0.31271	0.52314	271.69	6.6553	1.6878e-05	0.013189	0
214.00	0.10000	2.2503	0.44438	66.558	111.00	3.7025	0.31270	0.52310	272.34	6.6022	1.6948e-05	0.013244	0
215.00	0.10000	2.2398	0.44647	66.872	111.52	3.7050	0.31269	0.52307	272.98	6.5496	1.7019e-05	0.013299	0
216.00	0.10000	2.2294	0.44856	67.186	112.04	3.7074	0.31268	0.52304	273.61	6.4977	1.7089e-05	0.013354	0
217.00	0.10000	2.2190	0.45065	67.500	112.56	3.7098	0.31268	0.52301	274.25	6.4465	1.7160e-05	0.013409	0
218.00	0.10000	2.2087	0.45275	67.813	113.09	3.7122	0.31267	0.52297	274.89	6.3958	1.7230e-05	0.013464	0
219.00	0.10000	2.1986	0.45484	68.127	113.61	3.7146	0.31266	0.52294	275.52	6.3457	1.7300e-05	0.013519	0
220.00	0.10000	2.1885	0.45693	68.441	114.13	3.7170	0.31266	0.52291	276.15	6.2962	1.7370e-05	0.013573	0
221.00	0.10000	2.1785	0.45902	68.755	114.66	3.7193	0.31265	0.52288	276.78	6.2473	1.7440e-05	0.013628	0
222.00	0.10000	2.1687	0.46111	69.068	115.18	3.7217	0.31264	0.52285	277.41	6.1989	1.7510e-05	0.013682	0
223.00	0.10000	2.1589	0.46321	69.382	115.70	3.7241	0.31264	0.52282	278.04	6.1511	1.7579e-05	0.013737	0
224.00	0.10000	2.1492	0.46530	69.696	116.23	3.7264	0.31263	0.52280	278.67	6.1038	1.7649e-05	0.013791	0
225.00	0.10000	2.1396	0.46739	70.009	116.75	3.7287	0.31263	0.52277	279.29	6.0571	1.7718e-05	0.013845	0
226.00	0.10000	2.1300	0.46948	70.323	117.27	3.7310	0.31262	0.52274	279.91	6.0109	1.7788e-05	0.013899	0
227.00	0.10000	2.1206	0.47157	70.636	117.79	3.7334	0.31261	0.52271	280.54	5.9652	1.7857e-05	0.013954	0
228.00	0.10000	2.1112	0.47366	70.950	118.32	3.7356	0.31261	0.52269	281.16	5.9200	1.7926e-05	0.014008	0
229.00	0.10000	2.1019	0.47575	71.264	118.84	3.7379	0.31260	0.52266	281.78	5.8753	1.7995e-05	0.014062	0
230.00	0.10000	2.0927	0.47784	71.577	119.36	3.7402	0.31260	0.52264	282.40	5.8311	1.8064e-05	0.014115	0
231.00	0.10000	2.0836	0.47993	71.891	119.88	3.7425	0.31259	0.52261	283.01	5.7874	1.8133e-05	0.014169	0
232.00	0.10000	2.0746	0.48202	72.204	120.41	3.7447	0.31259	0.52259	283.63	5.7442	1.8202e-05	0.014223	0
233.00	0.10000	2.0656	0.48412	72.518	120.93	3.7470	0.31258	0.52256	284.24	5.7014	1.8271e-05	0.014277	0
234.00	0.10000	2.0567	0.48621	72.831	121.45	3.7492	0.31258	0.52254	284.85	5.6591	1.8340e-05	0.014330	0
235.00	0.10000	2.0479	0.48830	73.145	121.97	3.7515	0.31257	0.52251	285.46	5.6173	1.8408e-05	0.014384	0
236.00	0.10000	2.0392	0.49039	73.458	122.50	3.7537	0.31257	0.52249	286.07	5.5759	1.8477e-05	0.014437	0
237.00	0.10000	2.0306	0.49248	73.772	123.02	3.7559	0.31256	0.52247	286.68	5.5350	1.8545e-05	0.014490	0
238.00	0.10000	2.0220	0.49457	74.085	123.54	3.7581	0.31256	0.52244	287.29	5.4944	1.8613e-05	0.014544	0
239.00	0.10000	2.0135	0.49666	74.399	124.06	3.7603	0.31255	0.52242	287.90	5.4543	1.8681e-05	0.014597	0
240.00	0.10000	2.0050	0.49875	74.712	124.59	3.7625	0.31255	0.52240	288.50	5.4147	1.8749e-05	0.014650	0
241.00	0.10000	1.9967	0.50084	75.025	125.11	3.7646	0.31255	0.52238	289.10	5.3754	1.8817e-05	0.014703	0
242.00	0.10000	1.9884	0.50293	75.339	125.63	3.7668	0.31254	0.52236	289.71	5.3366	1.8885e-05	0.014756	0
243.00	0.10000	1.9801	0.50502	75.652	126.15	3.7689	0.31254	0.52234	290.31	5.2981	1.8953e-05	0.014809	0
244.00	0.10000	1.9720	0.50711	75.965	126.68	3.7711	0.31253	0.52232	290.91	5.2601	1.9021e-05	0.014862	0
245.00	0.10000	1.9639	0.50920	76.279	127.20	3.7732	0.31253	0.52229	291.50	5.2224	1.9088e-05	0.014915	0
246.00	0.10000	1.9559	0.51128	76.592	127.72	3.7753	0.31252	0.52227	292.10	5.1851	1.9156e-05	0.014967	0
247.00	0.10000	1.9479	0.51337	76.906	128.24	3.7775	0.31252	0.52225	292.70	5.1482	1.9223e-05	0.015020	0
248.00	0.10000	1.9400	0.51546	77.219	128.77	3.7796	0.31252	0.52224	293.29	5.1117	1.9291e-05	0.015073	0
249.00	0.10000	1.9322	0.51755	77.532	129.29	3.7817	0.31251	0.52222	293.88	5.0755	1.9358e-05	0.015125	0
250.00	0.10000	1.9244	0.51964	77.845	129.81	3.7838	0.31251	0.52220	294.48	5.0397	1.9425e-05	0.015178	0
251.00	0.10000	1.9167	0.52173	78.159	130.33	3.7859	0.31251	0.52218	295.07	5.0043	1.9492e-05	0.015230	0
252.00	0.10000	1.9091	0.52382	78.472	130.85	3.7879	0.31250	0.52216	295.66	4.9692	1.9559e-05	0.015282	0
253.00	0.10000	1.9015	0.52591	78.785	131.38	3.7900	0.31250	0.52214	296.24	4.9344	1.9626e-05	0.015334	0
254.00	0.10000	1.8939	0.52800	79.098	131.90	3.7921	0.31249	0.52212	296.83	4.9000	1.9693e-05	0.015387	0
255.00	0.10000	1.8865	0.53009	79.412	132.42	3.7941	0.31249	0.52211	297.42	4.8659	1.9760e-05	0.015439	0
256.00	0.10000	1.8791	0.53218	79.725	132.94	3.7962	0.31249	0.52209	298.00	4.8322	1.9826e-05	0.015491	0
257.00	0.10000	1.8717	0.53426	80.038	133.46	3.7982	0.31248	0.52207	298.59	4.7987	1.9893e-05	0.015543	0
258.00	0.10000	1.8644	0.53635	80.351	133.99	3.8002	0.31248	0.52206	299.17	4.7656	1.9959e-05	0.015594	0
259.00	0.10000	1.8572	0.53844	80.665	134.51	3.8022	0.31248	0.52204	299.75	4.7329	2.0026e-05	0.015646	0
260.00	0.10000	1.8500	0.54053	80.978	135.03	3.8043	0.31248	0.52202	300.33	4.7004	2.0092e-05	0.015698	0
261.00	0.10000	1.8429	0.54262	81.291	135.55	3.8063	0.31247	0.52201	300.91	4.6682	2.0158e-05	0.015750	0
262.00	0.10000	1.8359	0.54471	81.604	136.07	3.8083	0.31247	0.52199	301.49	4.6364	2.0224e-05	0.015801	0
263.00	0.10000	1.8288	0.54679	81.917	136.60	3.8102	0.31247	0.52198	302.06	4.6048	2.0291e-05	0.015853	0
264.00	0.10000	1.8219	0.54888	82.230	137.12	3.8122	0.31246	0.52196	302.64	4.5736	2.0356e-05	0.015904	0
265.00	0.10000	1.8150	0.55097	82.544	137.64	3.8142	0.31246	0.52195	303.21	4.5426	2.0422e-05	0.015956	0
266.00	0.10000	1.8081	0.55306	82.857	138.16	3.8162	0.31246	0.52193	303.79	4.5119	2.0488e-05	0.016007	0
267.00	0.10000	1.8013	0.55515	83.170	138.68	3.8181	0.31245	0.52192	304.36	4.4815	2.0554e-05	0.016058	0
268.00	0.10000	1.7946	0.55723	83.483	139.21	3.8201	0.31245	0.52190	304.93	4.4514	2.0619e-05	0.016109	0
269.00	0.10000	1.7879	0.55932	83.796	139.73	3.8220	0.31245	0.52189	305.50	4.4215	2.0685e-05	0.016161	0
270.00	0.10000	1.7812	0.56141	84.109	140.25	3.8239	0.31245	0.52187	306.07	4.3920	2.0750e-05	0.016212	0
271.00	0.10000	1.7746	0.56350	84.422	140.77	3.8259	0.31244	0.52186	306.64	4.3627	2.0816e-05	0.016263	0
272.00	0.10000	1.7681	0.56559	84.735	141.29	3.8278	0.31244	0.52184	307.21	4.3336	2.0881e-05	0.016314	0
273.00	0.10000	1.7616	0.56767	85.048	141.82	3.8297	0.31244	0.52183	307.77	4.3048	2.0946e-05	0.016364	0
274.00	0.10000	1.7551	0.56976	85.361	142.34	3.8316	0.31244	0.52182	308.34	4.2763	2.1011e-05	0.016415	0
275.00	0.10000	1.7487	0.57185	85.675	142.86	3.8335	0.31243	0.52180	308.90	4.2480	2.1076e-05	0.016466	0
276.00	0.10000	1.7424	0.57394	85.988	143.38	3.8354	0.31243	0.52179	309.46	4.2200	2.1141e-05	0.016517	0
277.00	0.10000	1.7360	0.57602	86.301	143.90	3.8373	0.31243	0.52178	310.03	4.1923	2.1206e-05	0.016567	0
278.00	0.10000	1.7298	0.57811	86.614	144.42	3.8392	0.31243	0.52177	310.59	4.1647	2.1271e-05	0.016618	0
279.00	0.10000	1.7236	0.58020	86.927	144.95	3.8411	0.31242	0.52175	311.15	4.1375	2.1336e-05	0.016668	0
280.00	0.10000	1.7174	0.58229	87.240	145.47	3.8429	0.31242	0.52174	311.70	4.1104	2.1400e-05	0.016719	0
281.00	0.10000	1.7112	0.58437	87.553	145.99	3.8448	0.31242	0.52173	312.26	4.0836	2.1465e-05	0.016769	0
282.00	0.10000	1.7051	0.58646	87.866	146.51	3.8466	0.31242	0.52172	312.82	4.0570	2.1529e-05	0.016819	0
283.00	0.10000	1.6991	0.58855	88.179	147.03	3.8485	0.31242	0.52170	313.37	4.0307	2.1594e-05	0.016870	0
284.00	0.10000	1.6931	0.59063	88.492	147.56	3.8503	0.31241	0.52169	313.93	4.0046	2.1658e-05	0.016920	0
285.00	0.10000	1.6871	0.59272	88.805	148.08	3.8522	0.31241	0.52168	314.48	3.9787	2.1722e-05	0.016970	0
286.00	0.10000	1.6812	0.59481	89.118	148.60	3.8540	0.31241	0.52167	315.03	3.9530	2.1786e-05	0.017020	0
287.00	0.10000	1.6753	0.59689	89.431	149.12	3.8558	0.31241	0.52166	315.59	3.9276	2.1850e-05	0.017070	0
288.00	0.10000	1.6695	0.59898	89.744	149.64	3.8576	0.31241	0.52165	316.14	3.9023	2.1914e-05	0.017120	0
289.00	0.10000	1.6637	0.60107	90.057	150.16	3.8594	0.31240	0.52164	316.69	3.8773	2.1978e-05	0.017170	0
290.00	0.10000	1.6579	0.60316	90.370	150.69	3.8612	0.31240	0.52162	317.24	3.8525	2.2042e-05	0.017219	0
291.00	0.10000	1.6522	0.60524	90.682	151.21	3.8630	0.31240	0.52161	317.78	3.8279	2.2106e-05	0.017269	0
292.00	0.10000	1.6466	0.60733	90.995	151.73	3.8648	0.31240	0.52160	318.33	3.8035	2.2169e-05	0.017319	0
293.00	0.10000	1.6409	0.60942	91.308	152.25	3.8666	0.31240	0.52159	318.88	3.7793	2.2233e-05	0.017368	0
294.00	0.10000	1.6353	0.61150	91.621	152.77	3.8684	0.31239	0.52158	319.42	3.7553	2.2296e-05	0.017418	0
295.00	0.10000	1.6298	0.61359	91.934	153.29	3.8701	0.31239	0.52157	319.97	3.7314	2.2360e-05	0.017468	0
296.00	0.10000	1.6242	0.61568	92.247	153.81	3.8719	0.31239	0.52156	320.51	3.7078	2.2423e-05	0.017517	0
297.00	0.10000	1.6187	0.61776	92.560	154.34	3.8737	0.31239	0.52155	321.05	3.6844	2.2486e-05	0.017566	0
298.00	0.10000	1.6133	0.61985	92.873	154.86	3.8754	0.31239	0.52154	321.59	3.6612	2.2550e-05	0.017616	0
299.00	0.10000	1.6079	0.62193	93.186	155.38	3.8772	0.31238	0.52153	322.13	3.6382	2.2613e-05	0.017665	0
300.00	0.10000	1.6025	0.62402	93.499	155.90	3.8789	0.31238	0.52152	322.67	3.6153	2.2676e-05	0.017714	0
301.00	0.10000	1.5972	0.62611	93.812	156.42	3.8806	0.31238	0.52151	323.21	3.5926	2.2739e-05	0.017763	0
302.00	0.10000	1.5919	0.62819	94.124	156.94	3.8824	0.31238	0.52150	323.75	3.5701	2.2802e-05	0.017812	0
303.00	0.10000	1.5866	0.63028	94.437	157.47	3.8841	0.31238	0.52149	324.28	3.5478	2.2864e-05	0.017861	0
304.00	0.10000	1.5814	0.63237	94.750	157.99	3.8858	0.31238	0.52148	324.82	3.5257	2.2927e-05	0.017910	0
305.00	0.10000	1.5762	0.63445	95.063	158.51	3.8875	0.31238	0.52148	325.35	3.5038	2.2990e-05	0.017959	0
306.00	0.10000	1.5710	0.63654	95.376	159.03	3.8892	0.31237	0.52147	325.89	3.4820	2.3052e-05	0.018008	0
307.00	0.10000	1.5659	0.63862	95.689	159.55	3.8909	0.31237	0.52146	326.42	3.4604	2.3115e-05	0.018057	0
308.00	0.10000	1.5608	0.64071	96.002	160.07	3.8926	0.31237	0.52145	326.95	3.4389	2.3177e-05	0.018105	0
309.00	0.10000	1.5557	0.64280	96.314	160.59	3.8943	0.31237	0.52144	327.49	3.4176	2.3240e-05	0.018154	0
310.00	0.10000	1.5507	0.64488	96.627	161.12	3.8960	0.31237	0.52143	328.02	3.3965	2.3302e-05	0.018203	0
311.00	0.10000	1.5457	0.64697	96.940	161.64	3.8977	0.31237	0.52142	328.55	3.3756	2.3364e-05	0.018251	0
312.00	0.10000	1.5407	0.64905	97.253	162.16	3.8994	0.31236	0.52141	329.07	3.3548	2.3426e-05	0.018300	0
313.00	0.10000	1.5358	0.65114	97.566	162.68	3.9010	0.31236	0.52141	329.60	3.3342	2.3488e-05	0.018348	0
314.00	0.10000	1.5309	0.65323	97.879	163.20	3.9027	0.31236	0.52140	330.13	3.3137	2.3550e-05	0.018396	0
315.00	0.10000	1.5260	0.65531	98.191	163.72	3.9044	0.31236	0.52139	330.66	3.2934	2.3612e-05	0.018445	0
316.00	0.10000	1.5211	0.65740	98.504	164.24	3.9060	0.31236	0.52138	331.18	3.2733	2.3674e-05	0.018493	0
317.00	0.10000	1.5163	0.65948	98.817	164.77	3.9077	0.31236	0.52137	331.71	3.2533	2.3736e-05	0.018541	0
318.00	0.10000	1.5116	0.66157	99.130	165.29	3.9093	0.31236	0.52137	332.23	3.2334	2.3797e-05	0.018589	0
319.00	0.10000	1.5068	0.66365	99.443	165.81	3.9109	0.31236	0.52136	332.75	3.2137	2.3859e-05	0.018637	0
320.00	0.10000	1.5021	0.66574	99.755	166.33	3.9126	0.31235	0.52135	333.27	3.1942	2.3921e-05	0.018685	0
321.00	0.10000	1.4974	0.66783	100.07	166.85	3.9142	0.31235	0.52134	333.79	3.1747	2.3982e-05	0.018733	0
322.00	0.10000	1.4927	0.66991	100.38	167.37	3.9158	0.31235	0.52134	334.32	3.1555	2.4043e-05	0.018781	0
323.00	0.10000	1.4881	0.67200	100.69	167.89	3.9174	0.31235	0.52133	334.83	3.1364	2.4105e-05	0.018829	0
324.00	0.10000	1.4835	0.67408	101.01	168.41	3.9190	0.31235	0.52132	335.35	3.1174	2.4166e-05	0.018877	0
325.00	0.10000	1.4789	0.67617	101.32	168.94	3.9206	0.31235	0.52131	335.87	3.0985	2.4227e-05	0.018925	0
326.00	0.10000	1.4744	0.67825	101.63	169.46	3.9223	0.31235	0.52131	336.39	3.0798	2.4288e-05	0.018972	0
327.00	0.10000	1.4699	0.68034	101.94	169.98	3.9238	0.31235	0.52130	336.90	3.0613	2.4349e-05	0.019020	0
328.00	0.10000	1.4654	0.68242	102.26	170.50	3.9254	0.31234	0.52129	337.42	3.0429	2.4410e-05	0.019068	0
329.00	0.10000	1.4609	0.68451	102.57	171.02	3.9270	0.31234	0.52128	337.93	3.0246	2.4471e-05	0.019115	0
330.00	0.10000	1.4565	0.68660	102.88	171.54	3.9286	0.31234	0.52128	338.45	3.0064	2.4532e-05	0.019162	0
331.00	0.10000	1.4521	0.68868	103.20	172.06	3.9302	0.31234	0.52127	338.96	2.9884	2.4593e-05	0.019210	0
332.00	0.10000	1.4477	0.69077	103.51	172.59	3.9318	0.31234	0.52126	339.47	2.9705	2.4654e-05	0.019257	0
333.00	0.10000	1.4433	0.69285	103.82	173.11	3.9333	0.31234	0.52126	339.99	2.9527	2.4714e-05	0.019305	0
334.00	0.10000	1.4390	0.69494	104.13	173.63	3.9349	0.31234	0.52125	340.50	2.9351	2.4775e-05	0.019352	0
335.00	0.10000	1.4347	0.69702	104.45	174.15	3.9364	0.31234	0.52124	341.01	2.9175	2.4835e-05	0.019399	0
336.00	0.10000	1.4304	0.69911	104.76	174.67	3.9380	0.31234	0.52124	341.52	2.9001	2.4896e-05	0.019446	0
337.00	0.10000	1.4261	0.70119	105.07	175.19	3.9396	0.31233	0.52123	342.02	2.8829	2.4956e-05	0.019493	0
338.00	0.10000	1.4219	0.70328	105.38	175.71	3.9411	0.31233	0.52123	342.53	2.8657	2.5016e-05	0.019540	0
339.00	0.10000	1.4177	0.70536	105.70	176.23	3.9426	0.31233	0.52122	343.04	2.8487	2.5076e-05	0.019587	0
340.00	0.10000	1.4135	0.70745	106.01	176.75	3.9442	0.31233	0.52121	343.55	2.8318	2.5137e-05	0.019634	0
341.00	0.10000	1.4094	0.70953	106.32	177.28	3.9457	0.31233	0.52121	344.05	2.8150	2.5197e-05	0.019681	0
342.00	0.10000	1.4052	0.71162	106.64	177.80	3.9472	0.31233	0.52120	344.56	2.7983	2.5257e-05	0.019728	0
343.00	0.10000	1.4011	0.71370	106.95	178.32	3.9487	0.31233	0.52119	345.06	2.7818	2.5317e-05	0.019775	0
344.00	0.10000	1.3971	0.71579	107.26	178.84	3.9503	0.31233	0.52119	345.56	2.7653	2.5376e-05	0.019821	0
345.00	0.10000	1.3930	0.71787	107.57	179.36	3.9518	0.31233	0.52118	346.06	2.7490	2.5436e-05	0.019868	0
346.00	0.10000	1.3890	0.71996	107.89	179.88	3.9533	0.31233	0.52118	346.57	2.7328	2.5496e-05	0.019915	0
347.00	0.10000	1.3850	0.72204	108.20	180.40	3.9548	0.31232	0.52117	347.07	2.7167	2.5556e-05	0.019961	0
348.00	0.10000	1.3810	0.72413	108.51	180.92	3.9563	0.31232	0.52117	347.57	2.7007	2.5615e-05	0.020008	0
349.00	0.10000	1.3770	0.72621	108.82	181.45	3.9578	0.31232	0.52116	348.07	2.6848	2.5675e-05	0.020054	0
350.00	0.10000	1.3731	0.72830	109.14	181.97	3.9593	0.31232	0.52115	348.57	2.6690	2.5734e-05	0.020100	0
