Temperature (K)	Pressure (MPa)	Density (kg/m3)	Volume (m3/kg)	Internal Energy (kJ/kg)	Enthalpy (kJ/kg)	Entropy (J/g*K)	Cv (J/g*K)	Cp (J/g*K)	Sound Spd. (m/s)	Joule-Thomson (K/MPa)	Viscosity (Pa*s)	Therm. Cond. (W/m*K)	Phase
100.00	0.10000	3.4366	0.29098	72.807	101.91	5.6937	0.75140	1.0713	201.64	16.082	6.9644e-06	0.0098709	0
101.00	0.10000	3.4006	0.29406	73.570	102.98	5.7043	0.75103	1.0703	202.72	15.782	7.0303e-06	0.0099732	0
102.00	0.10000	3.3654	0.29714	74.332	104.05	5.7149	0.75068	1.0693	203.79	15.491	7.0961e-06	0.010075	0
103.00	0.10000	3.3310	0.30021	75.094	105.12	5.7253	0.75034	1.0683	204.85	15.209	7.1617e-06	0.010177	0
104.00	0.10000	3.2972	0.30328	75.854	106.18	5.7356	0.75003	1.0674	205.90	14.936	7.2272e-06	0.010278	0
105.00	0.10000	3.2642	0.30635	76.615	107.25	5.7458	0.74973	1.0665	206.95	14.671	7.2925e-06	0.010378	0
106.00	0.10000	3.2319	0.30942	77.374	108.32	5.7559	0.74944	1.0657	207.99	14.414	7.3578e-06	0.010478	0
107.00	0.10000	3.2002	0.31248	78.133	109.38	5.7659	0.74917	1.0649	209.03	14.165	7.4228e-06	0.010578	0
108.00	0.10000	3.1692	0.31554	78.892	110.45	5.7759	0.74892	1.0641	210.06	13.924	7.4878e-06	0.010677	0
109.00	0.10000	3.1387	0.31860	79.650	111.51	5.7857	0.74867	1.0634	211.08	13.689	7.5526e-06	0.010776	0
110.00	0.10000	3.1089	0.32165	80.407	112.57	5.7954	0.74844	1.0627	212.10	13.461	7.6172e-06	0.010874	0
111.00	0.10000	3.0797	0.32471	81.164	113.63	5.8050	0.74822	1.0620	213.11	13.239	7.6818e-06	0.010972	0
112.00	0.10000	3.0510	0.32776	81.921	114.70	5.8145	0.74801	1.0613	214.12	13.024	7.7462e-06	0.011070	0
113.00	0.10000	3.0229	0.33081	82.677	115.76	5.8239	0.74781	1.0607	215.12	12.815	7.8104e-06	0.011167	0
114.00	0.10000	2.9953	0.33385	83.432	116.82	5.8333	0.74762	1.0601	216.11	12.611	7.8745e-06	0.011264	0
115.00	0.10000	2.9683	0.33690	84.188	117.88	5.8425	0.74743	1.0596	217.10	12.412	7.9385e-06	0.011360	0
116.00	0.10000	2.9417	0.33994	84.943	118.94	5.8517	0.74726	1.0590	218.09	12.219	8.0023e-06	0.011457	0
117.00	0.10000	2.9156	0.34298	85.697	120.00	5.8608	0.74709	1.0585	219.07	12.031	8.0660e-06	0.011552	0
118.00	0.10000	2.8900	0.34602	86.452	121.05	5.8698	0.74693	1.0580	220.04	11.848	8.1296e-06	0.011648	0
119.00	0.10000	2.8648	0.34906	87.206	122.11	5.8787	0.74678	1.0575	221.01	11.670	8.1930e-06	0.011743	0
120.00	0.10000	2.8401	0.35210	87.959	123.17	5.8876	0.74664	1.0570	221.97	11.496	8.2563e-06	0.011838	0
121.00	0.10000	2.8159	0.35513	88.713	124.23	5.8963	0.74650	1.0566	222.93	11.326	8.3195e-06	0.011932	0
122.00	0.10000	2.7920	0.35816	89.466	125.28	5.9050	0.74636	1.0561	223.89	11.160	8.3825e-06	0.012026	0
123.00	0.10000	2.7686	0.36119	90.219	126.34	5.9137	0.74624	1.0557	224.84	10.999	8.4454e-06	0.012120	0
124.00	0.10000	2.7456	0.36423	90.971	127.39	5.9222	0.74611	1.0553	225.79	10.841	8.5082e-06	0.012213	0
125.00	0.10000	2.7229	0.36725	91.723	128.45	5.9307	0.74600	1.0549	226.73	10.688	8.5708e-06	0.012307	0
126.00	0.10000	2.7006	0.37028	92.475	129.50	5.9391	0.74588	1.0546	227.67	10.537	8.6333e-06	0.012399	0
127.00	0.10000	2.6788	0.37331	93.227	130.56	5.9474	0.74578	1.0542	228.60	10.390	8.6957e-06	0.012492	0
128.00	0.10000	2.6572	0.37633	93.979	131.61	5.9557	0.74567	1.0538	229.53	10.247	8.7579e-06	0.012584	0
129.00	0.10000	2.6360	0.37936	94.730	132.67	5.9639	0.74557	1.0535	230.45	10.107	8.8200e-06	0.012676	0
130.00	0.10000	2.6152	0.38238	95.481	133.72	5.9720	0.74548	1.0532	231.37	9.9700	8.8820e-06	0.012768	0
131.00	0.10000	2.5947	0.38540	96.232	134.77	5.9801	0.74538	1.0529	232.29	9.8360	8.9438e-06	0.012859	0
132.00	0.10000	2.5745	0.38842	96.982	135.82	5.9881	0.74530	1.0526	233.20	9.7050	9.0055e-06	0.012951	0
133.00	0.10000	2.5547	0.39144	97.733	136.88	5.9960	0.74521	1.0523	234.11	9.5769	9.0671e-06	0.013041	0
134.00	0.10000	2.5351	0.39446	98.483	137.93	6.0039	0.74513	1.0520	235.01	9.4515	9.1285e-06	0.013132	0
135.00	0.10000	2.5159	0.39748	99.233	138.98	6.0117	0.74505	1.0517	235.91	9.3288	9.1899e-06	0.013222	0
136.00	0.10000	2.4969	0.40049	99.983	140.03	6.0195	0.74498	1.0514	236.81	9.2087	9.2511e-06	0.013313	0
137.00	0.10000	2.4783	0.40351	100.73	141.08	6.0272	0.74490	1.0512	237.71	9.0911	9.3121e-06	0.013402	0
138.00	0.10000	2.4599	0.40652	101.48	142.13	6.0348	0.74483	1.0509	238.59	8.9759	9.3731e-06	0.013492	0
139.00	0.10000	2.4418	0.40954	102.23	143.19	6.0424	0.74477	1.0507	239.48	8.8630	9.4339e-06	0.013582	0
140.00	0.10000	2.4239	0.41255	102.98	144.24	6.0500	0.74470	1.0504	240.36	8.7525	9.4945e-06	0.013671	0
141.00	0.10000	2.4064	0.41556	103.73	145.29	6.0574	0.74464	1.0502	241.24	8.6442	9.5551e-06	0.013760	0
142.00	0.10000	2.3891	0.41857	104.48	146.34	6.0649	0.74458	1.0500	242.12	8.5380	9.6155e-06	0.013848	0
143.00	0.10000	2.3720	0.42158	105.23	147.39	6.0722	0.74452	1.0498	242.99	8.4339	9.6759e-06	0.013937	0
144.00	0.10000	2.3552	0.42459	105.98	148.44	6.0795	0.74446	1.0496	243.86	8.3319	9.7360e-06	0.014025	0
145.00	0.10000	2.3386	0.42760	106.73	149.49	6.0868	0.74441	1.0494	244.72	8.2318	9.7961e-06	0.014113	0
146.00	0.10000	2.3223	0.43061	107.47	150.53	6.0940	0.74436	1.0492	245.58	8.1337	9.8560e-06	0.014201	0
147.00	0.10000	2.3062	0.43362	108.22	151.58	6.1012	0.74430	1.0490	246.44	8.0374	9.9159e-06	0.014288	0
148.00	0.10000	2.2903	0.43663	108.97	152.63	6.1083	0.74426	1.0488	247.30	7.9429	9.9755e-06	0.014376	0
149.00	0.10000	2.2746	0.43963	109.72	153.68	6.1153	0.74421	1.0486	248.15	7.8502	1.0035e-05	0.014463	0
150.00	0.10000	2.2592	0.44264	110.47	154.73	6.1224	0.74416	1.0484	249.00	7.7591	1.0095e-05	0.014550	0
151.00	0.10000	2.2440	0.44564	111.21	155.78	6.1293	0.74412	1.0483	249.85	7.6698	1.0154e-05	0.014636	0
152.00	0.10000	2.2289	0.44865	111.96	156.83	6.1362	0.74408	1.0481	250.69	7.5821	1.0213e-05	0.014723	0
153.00	0.10000	2.2141	0.45165	112.71	157.87	6.1431	0.74403	1.0479	251.53	7.4959	1.0272e-05	0.014809	0
154.00	0.10000	2.1995	0.45465	113.46	158.92	6.1499	0.74399	1.0478	252.37	7.4113	1.0331e-05	0.014895	0
155.00	0.10000	2.1851	0.45765	114.20	159.97	6.1567	0.74396	1.0476	253.20	7.3282	1.0390e-05	0.014981	0
156.00	0.10000	2.1708	0.46066	114.95	161.02	6.1635	0.74392	1.0475	254.03	7.2465	1.0449e-05	0.015067	0
157.00	0.10000	2.1568	0.46366	115.70	162.07	6.1702	0.74388	1.0473	254.86	7.1663	1.0507e-05	0.015152	0
158.00	0.10000	2.1429	0.46666	116.45	163.11	6.1768	0.74385	1.0472	255.68	7.0874	1.0566e-05	0.015237	0
159.00	0.10000	2.1292	0.46966	117.19	164.16	6.1834	0.74381	1.0470	256.51	7.0099	1.0624e-05	0.015322	0
160.00	0.10000	2.1157	0.47266	117.94	165.21	6.1900	0.74378	1.0469	257.33	6.9337	1.0683e-05	0.015407	0
161.00	0.10000	2.1024	0.47566	118.69	166.25	6.1965	0.74375	1.0468	258.14	6.8588	1.0741e-05	0.015492	0
162.00	0.10000	2.0892	0.47866	119.43	167.30	6.2030	0.74372	1.0466	258.96	6.7851	1.0799e-05	0.015576	0
163.00	0.10000	2.0762	0.48165	120.18	168.35	6.2094	0.74369	1.0465	259.77	6.7127	1.0857e-05	0.015661	0
164.00	0.10000	2.0633	0.48465	120.93	169.39	6.2158	0.74366	1.0464	260.58	6.6414	1.0914e-05	0.015745	0
165.00	0.10000	2.0507	0.48765	121.67	170.44	6.2222	0.74363	1.0463	261.38	6.5713	1.0972e-05	0.015829	0
166.00	0.10000	2.0381	0.49065	122.42	171.49	6.2285	0.74360	1.0462	262.19	6.5023	1.1030e-05	0.015912	0
167.00	0.10000	2.0258	0.49364	123.17	172.53	6.2348	0.74358	1.0460	262.99	6.4344	1.1087e-05	0.015996	0
168.00	0.10000	2.0135	0.49664	123.91	173.58	6.2410	0.74355	1.0459	263.78	6.3677	1.1145e-05	0.016079	0
169.00	0.10000	2.0015	0.49964	124.66	174.62	6.2472	0.74352	1.0458	264.58	6.3019	1.1202e-05	0.016163	0
170.00	0.10000	1.9895	0.50263	125.41	175.67	6.2534	0.74350	1.0457	265.37	6.2372	1.1259e-05	0.016246	0
171.00	0.10000	1.9777	0.50563	126.15	176.72	6.2595	0.74348	1.0456	266.16	6.1735	1.1316e-05	0.016328	0
172.00	0.10000	1.9661	0.50862	126.90	177.76	6.2656	0.74345	1.0455	266.95	6.1108	1.1373e-05	0.016411	0
173.00	0.10000	1.9546	0.51161	127.64	178.81	6.2717	0.74343	1.0454	267.74	6.0491	1.1430e-05	0.016494	0
174.00	0.10000	1.9432	0.51461	128.39	179.85	6.2777	0.74341	1.0453	268.52	5.9883	1.1486e-05	0.016576	0
175.00	0.10000	1.9320	0.51760	129.14	180.90	6.2837	0.74339	1.0452	269.30	5.9284	1.1543e-05	0.016658	0
176.00	0.10000	1.9209	0.52059	129.88	181.94	6.2897	0.74337	1.0451	270.08	5.8694	1.1599e-05	0.016740	0
177.00	0.10000	1.9099	0.52359	130.63	182.99	6.2956	0.74335	1.0450	270.86	5.8112	1.1656e-05	0.016822	0
178.00	0.10000	1.8991	0.52658	131.37	184.03	6.3015	0.74333	1.0450	271.63	5.7540	1.1712e-05	0.016903	0
179.00	0.10000	1.8883	0.52957	132.12	185.08	6.3073	0.74331	1.0449	272.40	5.6975	1.1768e-05	0.016985	0
180.00	0.10000	1.8777	0.53256	132.87	186.12	6.3131	0.74329	1.0448	273.17	5.6419	1.1824e-05	0.017066	0
181.00	0.10000	1.8672	0.53555	133.61	187.17	6.3189	0.74328	1.0447	273.94	5.5871	1.1880e-05	0.017147	0
182.00	0.10000	1.8569	0.53854	134.36	188.21	6.3247	0.74326	1.0446	274.70	5.5331	1.1936e-05	0.017228	0
183.00	0.10000	1.8466	0.54153	135.10	189.26	6.3304	0.74324	1.0446	275.46	5.4799	1.1992e-05	0.017309	0
184.00	0.10000	1.8365	0.54453	135.85	190.30	6.3361	0.74323	1.0445	276.23	5.4274	1.2047e-05	0.017390	0
185.00	0.10000	1.8264	0.54752	136.59	191.34	6.3418	0.74321	1.0444	276.98	5.3757	1.2103e-05	0.017470	0
186.00	0.10000	1.8165	0.55050	137.34	192.39	6.3474	0.74319	1.0443	277.74	5.3246	1.2158e-05	0.017551	0
187.00	0.10000	1.8067	0.55349	138.08	193.43	6.3530	0.74318	1.0443	278.49	5.2743	1.2214e-05	0.017631	0
188.00	0.10000	1.7970	0.55648	138.83	194.48	6.3586	0.74317	1.0442	279.24	5.2247	1.2269e-05	0.017711	0
189.00	0.10000	1.7874	0.55947	139.57	195.52	6.3641	0.74315	1.0441	279.99	5.1757	1.2324e-05	0.017791	0
190.00	0.10000	1.7779	0.56246	140.32	196.57	6.3696	0.74314	1.0440	280.74	5.1275	1.2379e-05	0.017870	0
191.00	0.10000	1.7685	0.56545	141.06	197.61	6.3751	0.74312	1.0440	281.49	5.0798	1.2434e-05	0.017950	0
192.00	0.10000	1.7592	0.56844	141.81	198.65	6.3805	0.74311	1.0439	282.23	5.0329	1.2489e-05	0.018029	0
193.00	0.10000	1.7500	0.57143	142.56	199.70	6.3860	0.74310	1.0439	282.97	4.9865	1.2543e-05	0.018109	0
194.00	0.10000	1.7409	0.57441	143.30	200.74	6.3914	0.74309	1.0438	283.71	4.9408	1.2598e-05	0.018188	0
195.00	0.10000	1.7319	0.57740	144.05	201.79	6.3967	0.74308	1.0437	284.45	4.8956	1.2652e-05	0.018267	0
196.00	0.10000	1.7230	0.58039	144.79	202.83	6.4021	0.74306	1.0437	285.18	4.8511	1.2707e-05	0.018345	0
197.00	0.10000	1.7142	0.58337	145.54	203.87	6.4074	0.74305	1.0436	285.92	4.8071	1.2761e-05	0.018424	0
198.00	0.10000	1.7054	0.58636	146.28	204.92	6.4127	0.74304	1.0436	286.65	4.7637	1.2815e-05	0.018503	0
199.00	0.10000	1.6968	0.58935	147.02	205.96	6.4179	0.74303	1.0435	287.38	4.7208	1.2870e-05	0.018581	0
200.00	0.10000	1.6882	0.59233	147.77	207.00	6.4232	0.74302	1.0434	288.11	4.6785	1.2924e-05	0.018659	0
201.00	0.10000	1.6798	0.59532	148.51	208.05	6.4284	0.74301	1.0434	288.83	4.6368	1.2977e-05	0.018737	0
202.00	0.10000	1.6714	0.59831	149.26	209.09	6.4335	0.74300	1.0433	289.55	4.5955	1.3031e-05	0.018815	0
203.00	0.10000	1.6631	0.60129	150.00	210.13	6.4387	0.74299	1.0433	290.28	4.5548	1.3085e-05	0.018893	0
204.00	0.10000	1.6549	0.60428	150.75	211.18	6.4438	0.74298	1.0432	291.00	4.5146	1.3139e-05	0.018971	0
205.00	0.10000	1.6467	0.60726	151.49	212.22	6.4489	0.74297	1.0432	291.71	4.4749	1.3192e-05	0.019048	0
206.00	0.10000	1.6387	0.61025	152.24	213.26	6.4540	0.74297	1.0431	292.43	4.4357	1.3246e-05	0.019125	0
207.00	0.10000	1.6307	0.61323	152.98	214.31	6.4590	0.74296	1.0431	293.15	4.3969	1.3299e-05	0.019203	0
208.00	0.10000	1.6228	0.61622	153.73	215.35	6.4641	0.74295	1.0430	293.86	4.3587	1.3352e-05	0.019280	0
209.00	0.10000	1.6150	0.61920	154.47	216.39	6.4691	0.74294	1.0430	294.57	4.3209	1.3405e-05	0.019357	0
210.00	0.10000	1.6072	0.62218	155.22	217.44	6.4741	0.74293	1.0429	295.28	4.2835	1.3458e-05	0.019433	0
211.00	0.10000	1.5996	0.62517	155.96	218.48	6.4790	0.74293	1.0429	295.99	4.2466	1.3511e-05	0.019510	0
212.00	0.10000	1.5920	0.62815	156.71	219.52	6.4839	0.74292	1.0429	296.69	4.2101	1.3564e-05	0.019586	0
213.00	0.10000	1.5844	0.63114	157.45	220.56	6.4888	0.74291	1.0428	297.40	4.1741	1.3617e-05	0.019663	0
214.00	0.10000	1.5770	0.63412	158.19	221.61	6.4937	0.74291	1.0428	298.10	4.1385	1.3670e-05	0.019739	0
215.00	0.10000	1.5696	0.63710	158.94	222.65	6.4986	0.74290	1.0427	298.80	4.1033	1.3722e-05	0.019815	0
216.00	0.10000	1.5623	0.64008	159.68	223.69	6.5034	0.74289	1.0427	299.50	4.0685	1.3775e-05	0.019891	0
217.00	0.10000	1.5550	0.64307	160.43	224.73	6.5082	0.74289	1.0427	300.19	4.0341	1.3827e-05	0.019967	0
218.00	0.10000	1.5479	0.64605	161.17	225.78	6.5130	0.74288	1.0426	300.89	4.0001	1.3880e-05	0.020043	0
219.00	0.10000	1.5408	0.64903	161.92	226.82	6.5178	0.74288	1.0426	301.58	3.9665	1.3932e-05	0.020118	0
220.00	0.10000	1.5337	0.65202	162.66	227.86	6.5226	0.74287	1.0425	302.28	3.9333	1.3984e-05	0.020194	0
221.00	0.10000	1.5267	0.65500	163.41	228.91	6.5273	0.74286	1.0425	302.97	3.9004	1.4036e-05	0.020269	0
222.00	0.10000	1.5198	0.65798	164.15	229.95	6.5320	0.74286	1.0425	303.66	3.8680	1.4088e-05	0.020344	0
223.00	0.10000	1.5129	0.66096	164.89	230.99	6.5367	0.74286	1.0424	304.34	3.8358	1.4140e-05	0.020419	0
224.00	0.10000	1.5062	0.66394	165.64	232.03	6.5413	0.74285	1.0424	305.03	3.8041	1.4192e-05	0.020494	0
225.00	0.10000	1.4994	0.66693	166.38	233.07	6.5460	0.74285	1.0424	305.71	3.7727	1.4243e-05	0.020569	0
226.00	0.10000	1.4927	0.66991	167.13	234.12	6.5506	0.74284	1.0423	306.39	3.7416	1.4295e-05	0.020644	0
227.00	0.10000	1.4861	0.67289	167.87	235.16	6.5552	0.74284	1.0423	307.08	3.7109	1.4347e-05	0.020718	0
228.00	0.10000	1.4796	0.67587	168.61	236.20	6.5598	0.74283	1.0423	307.76	3.6805	1.4398e-05	0.020792	0
229.00	0.10000	1.4731	0.67885	169.36	237.24	6.5644	0.74283	1.0422	308.43	3.6505	1.4449e-05	0.020867	0
230.00	0.10000	1.4666	0.68183	170.10	238.29	6.5689	0.74283	1.0422	309.11	3.6207	1.4501e-05	0.020941	0
231.00	0.10000	1.4603	0.68481	170.85	239.33	6.5734	0.74282	1.0422	309.78	3.5913	1.4552e-05	0.021015	0
232.00	0.10000	1.4539	0.68779	171.59	240.37	6.5779	0.74282	1.0421	310.46	3.5622	1.4603e-05	0.021089	0
233.00	0.10000	1.4477	0.69077	172.34	241.41	6.5824	0.74282	1.0421	311.13	3.5334	1.4654e-05	0.021163	0
234.00	0.10000	1.4414	0.69375	173.08	242.45	6.5869	0.74282	1.0421	311.80	3.5050	1.4705e-05	0.021236	0
235.00	0.10000	1.4353	0.69673	173.82	243.50	6.5913	0.74281	1.0421	312.47	3.4768	1.4756e-05	0.021310	0
236.00	0.10000	1.4292	0.69971	174.57	244.54	6.5957	0.74281	1.0420	313.14	3.4489	1.4807e-05	0.021383	0
237.00	0.10000	1.4231	0.70269	175.31	245.58	6.6001	0.74281	1.0420	313.80	3.4213	1.4857e-05	0.021457	0
238.00	0.10000	1.4171	0.70567	176.06	246.62	6.6045	0.74281	1.0420	314.47	3.3940	1.4908e-05	0.021530	0
239.00	0.10000	1.4111	0.70865	176.80	247.66	6.6089	0.74281	1.0420	315.13	3.3669	1.4958e-05	0.021603	0
240.00	0.10000	1.4052	0.71163	177.54	248.71	6.6132	0.74280	1.0419	315.79	3.3402	1.5009e-05	0.021676	0
241.00	0.10000	1.3994	0.71461	178.29	249.75	6.6176	0.74280	1.0419	316.45	3.3137	1.5059e-05	0.021749	0
242.00	0.10000	1.3935	0.71759	179.03	250.79	6.6219	0.74280	1.0419	317.11	3.2875	1.5109e-05	0.021821	0
243.00	0.10000	1.3878	0.72057	179.78	251.83	6.6262	0.74280	1.0419	317.77	3.2615	1.5160e-05	0.021894	0
244.00	0.10000	1.3821	0.72355	180.52	252.87	6.6305	0.74280	1.0418	318.42	3.2358	1.5210e-05	0.021966	0
245.00	0.10000	1.3764	0.72653	181.26	253.92	6.6347	0.74280	1.0418	319.08	3.2104	1.5260e-05	0.022039	0
246.00	0.10000	1.3708	0.72951	182.01	254.96	6.6390	0.74280	1.0418	319.73	3.1852	1.5310e-05	0.022111	0
247.00	0.10000	1.3652	0.73249	182.75	256.00	6.6432	0.74280	1.0418	320.38	3.1603	1.5360e-05	0.022183	0
248.00	0.10000	1.3597	0.73547	183.49	257.04	6.6474	0.74280	1.0418	321.03	3.1356	1.5409e-05	0.022255	0
249.00	0.10000	1.3542	0.73845	184.24	258.08	6.6516	0.74280	1.0417	321.68	3.1112	1.5459e-05	0.022327	0
250.00	0.10000	1.3488	0.74143	184.98	259.13	6.6558	0.74280	1.0417	322.33	3.0870	1.5509e-05	0.022399	0
251.00	0.10000	1.3434	0.74440	185.73	260.17	6.6599	0.74280	1.0417	322.98	3.0630	1.5558e-05	0.022471	0
252.00	0.10000	1.3380	0.74738	186.47	261.21	6.6641	0.74280	1.0417	323.62	3.0393	1.5608e-05	0.022542	0
253.00	0.10000	1.3327	0.75036	187.21	262.25	6.6682	0.74281	1.0417	324.27	3.0158	1.5657e-05	0.022614	0
254.00	0.10000	1.3274	0.75334	187.96	263.29	6.6723	0.74281	1.0416	324.91	2.9925	1.5707e-05	0.022685	0
255.00	0.10000	1.3222	0.75632	188.70	264.33	6.6764	0.74281	1.0416	325.55	2.9694	1.5756e-05	0.022756	0
256.00	0.10000	1.3170	0.75929	189.45	265.38	6.6805	0.74281	1.0416	326.19	2.9466	1.5805e-05	0.022827	0
257.00	0.10000	1.3119	0.76227	190.19	266.42	6.6845	0.74281	1.0416	326.83	2.9240	1.5854e-05	0.022898	0
258.00	0.10000	1.3068	0.76525	190.93	267.46	6.6886	0.74281	1.0416	327.46	2.9015	1.5903e-05	0.022969	0
259.00	0.10000	1.3017	0.76823	191.68	268.50	6.6926	0.74282	1.0416	328.10	2.8793	1.5952e-05	0.023040	0
260.00	0.10000	1.2967	0.77121	192.42	269.54	6.6966	0.74282	1.0415	328.74	2.8573	1.6001e-05	0.023111	0
261.00	0.10000	1.2917	0.77418	193.16	270.58	6.7006	0.74282	1.0415	329.37	2.8356	1.6050e-05	0.023181	0
262.00	0.10000	1.2867	0.77716	193.91	271.62	6.7046	0.74283	1.0415	330.00	2.8140	1.6098e-05	0.023252	0
263.00	0.10000	1.2818	0.78014	194.65	272.67	6.7086	0.74283	1.0415	330.63	2.7926	1.6147e-05	0.023322	0
264.00	0.10000	1.2770	0.78312	195.40	273.71	6.7125	0.74283	1.0415	331.26	2.7714	1.6196e-05	0.023393	0
265.00	0.10000	1.2721	0.78609	196.14	274.75	6.7165	0.74284	1.0415	331.89	2.7504	1.6244e-05	0.023463	0
266.00	0.10000	1.2673	0.78907	196.88	275.79	6.7204	0.74284	1.0415	332.52	2.7296	1.6293e-05	0.023533	0
267.00	0.10000	1.2626	0.79205	197.63	276.83	6.7243	0.74285	1.0415	333.14	2.7090	1.6341e-05	0.023603	0
268.00	0.10000	1.2578	0.79502	198.37	277.87	6.7282	0.74285	1.0414	333.77	2.6885	1.6389e-05	0.023673	0
269.00	0.10000	1.2531	0.79800	199.11	278.91	6.7321	0.74286	1.0414	334.39	2.6683	1.6437e-05	0.023742	0
270.00	0.10000	1.2485	0.80098	199.86	279.96	6.7359	0.74286	1.0414	335.01	2.6482	1.6486e-05	0.023812	0
271.00	0.10000	1.2439	0.80395	200.60	281.00	6.7398	0.74287	1.0414	335.64	2.6283	1.6534e-05	0.023882	0
272.00	0.10000	1.2393	0.80693	201.35	282.04	6.7436	0.74287	1.0414	336.26	2.6086	1.6582e-05	0.023951	0
273.00	0.10000	1.2347	0.80991	202.09	283.08	6.7474	0.74288	1.0414	336.87	2.5890	1.6629e-05	0.024020	0
274.00	0.10000	1.2302	0.81288	202.83	284.12	6.7512	0.74289	1.0414	337.49	2.5697	1.6677e-05	0.024090	0
275.00	0.10000	1.2257	0.81586	203.58	285.16	6.7550	0.74289	1.0414	338.11	2.5505	1.6725e-05	0.024159	0
276.00	0.10000	1.2212	0.81884	204.32	286.20	6.7588	0.74290	1.0414	338.72	2.5314	1.6773e-05	0.024228	0
277.00	0.10000	1.2168	0.82181	205.06	287.25	6.7626	0.74291	1.0414	339.34	2.5126	1.6820e-05	0.024297	0
278.00	0.10000	1.2124	0.82479	205.81	288.29	6.7663	0.74291	1.0414	339.95	2.4939	1.6868e-05	0.024366	0
279.00	0.10000	1.2081	0.82777	206.55	289.33	6.7701	0.74292	1.0414	340.56	2.4753	1.6915e-05	0.024435	0
280.00	0.10000	1.2037	0.83074	207.30	290.37	6.7738	0.74293	1.0413	341.17	2.4569	1.6963e-05	0.024503	0
281.00	0.10000	1.1994	0.83372	208.04	291.41	6.7775	0.74294	1.0413	341.78	2.4387	1.7010e-05	0.024572	0
282.00	0.10000	1.1952	0.83669	208.78	292.45	6.7812	0.74295	1.0413	342.39	2.4206	1.7058e-05	0.024640	0
283.00	0.10000	1.1909	0.83967	209.53	293.49	6.7849	0.74296	1.0413	343.00	2.4027	1.7105e-05	0.024709	0
284.00	0.10000	1.1867	0.84265	210.27	294.54	6.7886	0.74297	1.0413	343.61	2.3849	1.7152e-05	0.024777	0
285.00	0.10000	1.1826	0.84562	211.01	295.58	6.7922	0.74298	1.0413	344.21	2.3673	1.7199e-05	0.024845	0
286.00	0.10000	1.1784	0.84860	211.76	296.62	6.7959	0.74299	1.0413	344.82	2.3498	1.7246e-05	0.024914	0
287.00	0.10000	1.1743	0.85157	212.50	297.66	6.7995	0.74300	1.0413	345.42	2.3325	1.7293e-05	0.024982	0
288.00	0.10000	1.1702	0.85455	213.25	298.70	6.8031	0.74301	1.0413	346.02	2.3153	1.7340e-05	0.025050	0
289.00	0.10000	1.1661	0.85752	213.99	299.74	6.8068	0.74302	1.0413	346.62	2.2983	1.7387e-05	0.025117	0
290.00	0.10000	1.1621	0.86050	214.73	300.78	6.8103	0.74303	1.0413	347.22	2.2814	1.7433e-05	0.025185	0
291.00	0.10000	1.1581	0.86348	215.48	301.82	6.8139	0.74304	1.0413	347.82	2.2646	1.7480e-05	0.025253	0
292.00	0.10000	1.1541	0.86645	216.22	302.87	6.8175	0.74305	1.0413	348.42	2.2480	1.7527e-05	0.025320	0
293.00	0.10000	1.1502	0.86943	216.96	303.91	6.8211	0.74307	1.0413	349.01	2.2315	1.7573e-05	0.025388	0
294.00	0.10000	1.1463	0.87240	217.71	304.95	6.8246	0.74308	1.0413	349.61	2.2151	1.7620e-05	0.025455	0
295.00	0.10000	1.1424	0.87538	218.45	305.99	6.8281	0.74309	1.0413	350.20	2.1989	1.7666e-05	0.025523	0
296.00	0.10000	1.1385	0.87835	219.20	307.03	6.8317	0.74311	1.0413	350.80	2.1828	1.7712e-05	0.025590	0
297.00	0.10000	1.1347	0.88133	219.94	308.07	6.8352	0.74312	1.0413	351.39	2.1668	1.7759e-05	0.025657	0
298.00	0.10000	1.1308	0.88430	220.68	309.11	6.8387	0.74313	1.0413	351.98	2.1510	1.7805e-05	0.025724	0
299.00	0.10000	1.1270	0.88728	221.43	310.16	6.8422	0.74315	1.0413	352.57	2.1353	1.7851e-05	0.025791	0
300.00	0.10000	1.1233	0.89025	222.17	311.20	6.8457	0.74316	1.0413	353.16	2.1197	1.7897e-05	0.025858	0
301.00	0.10000	1.1195	0.89323	222.92	312.24	6.8491	0.74318	1.0413	353.75	2.1042	1.7943e-05	0.025925	0
302.00	0.10000	1.1158	0.89620	223.66	313.28	6.8526	0.74320	1.0413	354.33	2.0889	1.7989e-05	0.025992	0
303.00	0.10000	1.1121	0.89918	224.40	314.32	6.8560	0.74321	1.0414	354.92	2.0736	1.8035e-05	0.026058	0
304.00	0.10000	1.1085	0.90215	225.15	315.36	6.8594	0.74323	1.0414	355.51	2.0585	1.8081e-05	0.026125	0
305.00	0.10000	1.1048	0.90512	225.89	316.40	6.8629	0.74325	1.0414	356.09	2.0435	1.8127e-05	0.026191	0
306.00	0.10000	1.1012	0.90810	226.63	317.44	6.8663	0.74326	1.0414	356.67	2.0287	1.8172e-05	0.026258	0
307.00	0.10000	1.0976	0.91107	227.38	318.49	6.8697	0.74328	1.0414	357.25	2.0139	1.8218e-05	0.026324	0
308.00	0.10000	1.0940	0.91405	228.12	319.53	6.8731	0.74330	1.0414	357.84	1.9992	1.8263e-05	0.026390	0
309.00	0.10000	1.0905	0.91702	228.87	320.57	6.8764	0.74332	1.0414	358.42	1.9847	1.8309e-05	0.026456	0
310.00	0.10000	1.0870	0.92000	229.61	321.61	6.8798	0.74334	1.0414	358.99	1.9703	1.8354e-05	0.026523	0
311.00	0.10000	1.0835	0.92297	230.35	322.65	6.8832	0.74336	1.0414	359.57	1.9560	1.8400e-05	0.026589	0
312.00	0.10000	1.0800	0.92595	231.10	323.69	6.8865	0.74338	1.0414	360.15	1.9418	1.8445e-05	0.026654	0
313.00	0.10000	1.0765	0.92892	231.84	324.73	6.8898	0.74340	1.0414	360.73	1.9277	1.8490e-05	0.026720	0
314.00	0.10000	1.0731	0.93189	232.59	325.78	6.8931	0.74342	1.0415	361.30	1.9137	1.8536e-05	0.026786	0
315.00	0.10000	1.0697	0.93487	233.33	326.82	6.8965	0.74344	1.0415	361.88	1.8998	1.8581e-05	0.026852	0
316.00	0.10000	1.0663	0.93784	234.07	327.86	6.8998	0.74346	1.0415	362.45	1.8860	1.8626e-05	0.026917	0
317.00	0.10000	1.0629	0.94082	234.82	328.90	6.9031	0.74349	1.0415	363.02	1.8723	1.8671e-05	0.026983	0
318.00	0.10000	1.0596	0.94379	235.56	329.94	6.9063	0.74351	1.0415	363.59	1.8587	1.8716e-05	0.027048	0
319.00	0.10000	1.0562	0.94676	236.31	330.98	6.9096	0.74353	1.0415	364.16	1.8453	1.8761e-05	0.027114	0
320.00	0.10000	1.0529	0.94974	237.05	332.02	6.9129	0.74356	1.0415	364.73	1.8319	1.8806e-05	0.027179	0
321.00	0.10000	1.0496	0.95271	237.80	333.07	6.9161	0.74358	1.0415	365.30	1.8186	1.8850e-05	0.027244	0
322.00	0.10000	1.0464	0.95569	238.54	334.11	6.9194	0.74361	1.0416	365.87	1.8054	1.8895e-05	0.027309	0
323.00	0.10000	1.0431	0.95866	239.28	335.15	6.9226	0.74363	1.0416	366.43	1.7923	1.8940e-05	0.027375	0
324.00	0.10000	1.0399	0.96163	240.03	336.19	6.9258	0.74366	1.0416	367.00	1.7793	1.8984e-05	0.027440	0
325.00	0.10000	1.0367	0.96461	240.77	337.23	6.9290	0.74368	1.0416	367.57	1.7664	1.9029e-05	0.027505	0
326.00	0.10000	1.0335	0.96758	241.52	338.27	6.9322	0.74371	1.0416	368.13	1.7536	1.9073e-05	0.027569	0
327.00	0.10000	1.0303	0.97055	242.26	339.32	6.9354	0.74374	1.0417	368.69	1.7409	1.9118e-05	0.027634	0
328.00	0.10000	1.0272	0.97353	243.00	340.36	6.9386	0.74377	1.0417	369.25	1.7283	1.9162e-05	0.027699	0
329.00	0.10000	1.0241	0.97650	243.75	341.40	6.9418	0.74380	1.0417	369.82	1.7157	1.9206e-05	0.027764	0
330.00	0.10000	1.0210	0.97948	244.49	342.44	6.9449	0.74382	1.0417	370.38	1.7033	1.9251e-05	0.027828	0
331.00	0.10000	1.0179	0.98245	245.24	343.48	6.9481	0.74385	1.0417	370.93	1.6909	1.9295e-05	0.027893	0
332.00	0.10000	1.0148	0.98542	245.98	344.52	6.9512	0.74388	1.0418	371.49	1.6786	1.9339e-05	0.027957	0
333.00	0.10000	1.0117	0.98840	246.73	345.57	6.9543	0.74391	1.0418	372.05	1.6665	1.9383e-05	0.028022	0
334.00	0.10000	1.0087	0.99137	247.47	346.61	6.9575	0.74395	1.0418	372.61	1.6544	1.9427e-05	0.028086	0
335.00	0.10000	1.0057	0.99434	248.22	347.65	6.9606	0.74398	1.0418	373.16	1.6423	1.9471e-05	0.028150	0
336.00	0.10000	1.0027	0.99732	248.96	348.69	6.9637	0.74401	1.0419	373.72	1.6304	1.9515e-05	0.028214	0
337.00	0.10000	0.99971	1.0003	249.70	349.73	6.9668	0.74404	1.0419	374.27	1.6186	1.9559e-05	0.028279	0
338.00	0.10000	0.99675	1.0033	250.45	350.78	6.9699	0.74408	1.0419	374.82	1.6068	1.9603e-05	0.028343	0
339.00	0.10000	0.99380	1.0062	251.19	351.82	6.9729	0.74411	1.0419	375.38	1.5951	1.9646e-05	0.028407	0
340.00	0.10000	0.99088	1.0092	251.94	352.86	6.9760	0.74415	1.0420	375.93	1.5835	1.9690e-05	0.028471	0
341.00	0.10000	0.98797	1.0122	252.68	353.90	6.9791	0.74418	1.0420	376.48	1.5720	1.9734e-05	0.028534	0
342.00	0.10000	0.98507	1.0152	253.43	354.94	6.9821	0.74422	1.0420	377.03	1.5605	1.9777e-05	0.028598	0
343.00	0.10000	0.98220	1.0181	254.17	355.99	6.9852	0.74425	1.0421	377.58	1.5492	1.9821e-05	0.028662	0
344.00	0.10000	0.97934	1.0211	254.92	357.03	6.9882	0.74429	1.0421	378.12	1.5379	1.9864e-05	0.028726	0
345.00	0.10000	0.97649	1.0241	255.66	358.07	6.9912	0.74433	1.0421	378.67	1.5267	1.9908e-05	0.028789	0
346.00	0.10000	0.97367	1.0270	256.41	359.11	6.9942	0.74437	1.0421	379.22	1.5155	1.9951e-05	0.028853	0
347.00	0.10000	0.97086	1.0300	257.15	360.15	6.9973	0.74441	1.0422	379.76	1.5045	1.9994e-05	0.028916	0
348.00	0.10000	0.96806	1.0330	257.90	361.20	7.0003	0.74445	1.0422	380.31	1.4935	2.0038e-05	0.028980	0
349.00	0.10000	0.96528	1.0360	258.64	362.24	7.0032	0.74449	1.0422	380.85	1.4826	2.0081e-05	0.029043	0
350.00	0.10000	0.96252	1.0389	259.39	363.28	7.0062	0.74453	1.0423	381.39	1.4717	2.0124e-05	0.029106	0
