Temperature (K)	Pressure (MPa)	Density (kg/m3)	Volume (m3/kg)	Internal Energy (kJ/kg)	Enthalpy (kJ/kg)	Entropy (J/g*K)	Cv (J/g*K)	Cp (J/g*K)	Sound Spd. (m/s)	Joule-Thomson (K/MPa)	Viscosity (Pa*s)	Therm. Cond. (W/m*K)	Phase
100.00	0.10000	3.9411	0.25373	63.612	88.986	5.4054	0.65268	0.93520	188.37	18.479	7.7468e-06	0.0093101	0
101.00	0.10000	3.8995	0.25644	64.276	89.921	5.4147	0.65277	0.93468	189.37	18.171	7.8211e-06	0.0094059	0
102.00	0.10000	3.8588	0.25915	64.940	90.855	5.4239	0.65292	0.93425	190.37	17.873	7.8954e-06	0.0095017	0
103.00	0.10000	3.8189	0.26185	65.604	91.789	5.4330	0.65309	0.93387	191.36	17.586	7.9696e-06	0.0095973	0
104.00	0.10000	3.7800	0.26455	66.267	92.723	5.4421	0.65327	0.93352	192.34	17.306	8.0438e-06	0.0096929	0
105.00	0.10000	3.7418	0.26725	66.931	93.656	5.4510	0.65344	0.93319	193.31	17.033	8.1178e-06	0.0097885	0
106.00	0.10000	3.7044	0.26995	67.595	94.589	5.4598	0.65361	0.93287	194.28	16.766	8.1917e-06	0.0098839	0
107.00	0.10000	3.6679	0.27264	68.258	95.522	5.4686	0.65377	0.93254	195.25	16.505	8.2655e-06	0.0099793	0
108.00	0.10000	3.6320	0.27533	68.921	96.454	5.4773	0.65391	0.93222	196.21	16.249	8.3393e-06	0.010075	0
109.00	0.10000	3.5969	0.27802	69.584	97.386	5.4859	0.65403	0.93189	197.16	15.998	8.4129e-06	0.010170	0
110.00	0.10000	3.5625	0.28070	70.248	98.318	5.4944	0.65413	0.93155	198.11	15.752	8.4864e-06	0.010265	0
111.00	0.10000	3.5287	0.28339	70.911	99.249	5.5028	0.65421	0.93121	199.06	15.511	8.5598e-06	0.010360	0
112.00	0.10000	3.4956	0.28607	71.573	100.18	5.5111	0.65428	0.93086	199.99	15.275	8.6332e-06	0.010455	0
113.00	0.10000	3.4632	0.28875	72.236	101.11	5.5194	0.65433	0.93051	200.93	15.043	8.7064e-06	0.010550	0
114.00	0.10000	3.4314	0.29143	72.899	102.04	5.5276	0.65436	0.93015	201.86	14.815	8.7795e-06	0.010644	0
115.00	0.10000	3.4001	0.29411	73.561	102.97	5.5357	0.65438	0.92979	202.78	14.592	8.8525e-06	0.010739	0
116.00	0.10000	3.3695	0.29678	74.223	103.90	5.5438	0.65438	0.92943	203.71	14.374	8.9254e-06	0.010834	0
117.00	0.10000	3.3394	0.29945	74.885	104.83	5.5518	0.65438	0.92907	204.62	14.160	8.9982e-06	0.010928	0
118.00	0.10000	3.3099	0.30212	75.547	105.76	5.5597	0.65436	0.92871	205.53	13.950	9.0709e-06	0.011023	0
119.00	0.10000	3.2809	0.30479	76.208	106.69	5.5675	0.65434	0.92834	206.44	13.744	9.1434e-06	0.011117	0
120.00	0.10000	3.2524	0.30746	76.870	107.62	5.5753	0.65431	0.92798	207.35	13.543	9.2159e-06	0.011211	0
121.00	0.10000	3.2245	0.31013	77.531	108.54	5.5830	0.65426	0.92763	208.24	13.345	9.2882e-06	0.011305	0
122.00	0.10000	3.1970	0.31279	78.192	109.47	5.5906	0.65422	0.92727	209.14	13.152	9.3605e-06	0.011399	0
123.00	0.10000	3.1700	0.31545	78.853	110.40	5.5982	0.65417	0.92692	210.03	12.963	9.4326e-06	0.011493	0
124.00	0.10000	3.1435	0.31812	79.513	111.32	5.6057	0.65411	0.92657	210.92	12.777	9.5046e-06	0.011587	0
125.00	0.10000	3.1174	0.32078	80.174	112.25	5.6131	0.65405	0.92623	211.80	12.596	9.5765e-06	0.011680	0
126.00	0.10000	3.0918	0.32344	80.834	113.18	5.6205	0.65399	0.92590	212.68	12.418	9.6483e-06	0.011774	0
127.00	0.10000	3.0666	0.32609	81.494	114.10	5.6278	0.65392	0.92557	213.55	12.244	9.7200e-06	0.011868	0
128.00	0.10000	3.0418	0.32875	82.154	115.03	5.6351	0.65385	0.92524	214.42	12.074	9.7916e-06	0.011961	0
129.00	0.10000	3.0175	0.33140	82.813	115.95	5.6423	0.65378	0.92492	215.29	11.907	9.8630e-06	0.012054	0
130.00	0.10000	2.9935	0.33406	83.473	116.88	5.6494	0.65371	0.92461	216.16	11.743	9.9344e-06	0.012147	0
131.00	0.10000	2.9699	0.33671	84.132	117.80	5.6565	0.65364	0.92430	217.02	11.583	1.0006e-05	0.012240	0
132.00	0.10000	2.9467	0.33936	84.791	118.73	5.6635	0.65357	0.92400	217.87	11.427	1.0077e-05	0.012333	0
133.00	0.10000	2.9239	0.34201	85.450	119.65	5.6705	0.65349	0.92370	218.72	11.274	1.0148e-05	0.012426	0
134.00	0.10000	2.9014	0.34466	86.108	120.57	5.6774	0.65342	0.92342	219.57	11.123	1.0219e-05	0.012519	0
135.00	0.10000	2.8793	0.34731	86.767	121.50	5.6843	0.65335	0.92313	220.42	10.976	1.0289e-05	0.012612	0
136.00	0.10000	2.8575	0.34996	87.425	122.42	5.6911	0.65328	0.92286	221.26	10.833	1.0360e-05	0.012704	0
137.00	0.10000	2.8360	0.35260	88.083	123.34	5.6979	0.65321	0.92259	222.10	10.692	1.0431e-05	0.012796	0
138.00	0.10000	2.8149	0.35525	88.741	124.27	5.7046	0.65314	0.92233	222.93	10.553	1.0501e-05	0.012889	0
139.00	0.10000	2.7941	0.35789	89.399	125.19	5.7112	0.65307	0.92207	223.76	10.418	1.0571e-05	0.012981	0
140.00	0.10000	2.7736	0.36054	90.056	126.11	5.7178	0.65300	0.92182	224.59	10.286	1.0641e-05	0.013073	0
141.00	0.10000	2.7535	0.36318	90.714	127.03	5.7244	0.65293	0.92158	225.42	10.156	1.0712e-05	0.013165	0
142.00	0.10000	2.7336	0.36582	91.371	127.95	5.7309	0.65286	0.92134	226.24	10.029	1.0782e-05	0.013257	0
143.00	0.10000	2.7140	0.36846	92.028	128.87	5.7374	0.65280	0.92111	227.06	9.9041	1.0851e-05	0.013349	0
144.00	0.10000	2.6947	0.37110	92.685	129.80	5.7438	0.65273	0.92088	227.87	9.7820	1.0921e-05	0.013440	0
145.00	0.10000	2.6756	0.37374	93.342	130.72	5.7502	0.65267	0.92066	228.68	9.6623	1.0991e-05	0.013532	0
146.00	0.10000	2.6569	0.37638	93.999	131.64	5.7565	0.65261	0.92045	229.49	9.5450	1.1060e-05	0.013623	0
147.00	0.10000	2.6384	0.37902	94.655	132.56	5.7628	0.65255	0.92024	230.30	9.4300	1.1130e-05	0.013715	0
148.00	0.10000	2.6202	0.38165	95.312	133.48	5.7690	0.65249	0.92003	231.10	9.3172	1.1199e-05	0.013806	0
149.00	0.10000	2.6022	0.38429	95.968	134.40	5.7752	0.65243	0.91984	231.90	9.2066	1.1268e-05	0.013897	0
150.00	0.10000	2.5845	0.38693	96.624	135.32	5.7814	0.65238	0.91964	232.70	9.0982	1.1337e-05	0.013988	0
151.00	0.10000	2.5670	0.38956	97.280	136.24	5.7875	0.65232	0.91946	233.49	8.9918	1.1406e-05	0.014079	0
152.00	0.10000	2.5497	0.39220	97.936	137.16	5.7935	0.65227	0.91927	234.28	8.8875	1.1475e-05	0.014170	0
153.00	0.10000	2.5327	0.39483	98.592	138.07	5.7996	0.65222	0.91909	235.07	8.7852	1.1544e-05	0.014260	0
154.00	0.10000	2.5160	0.39746	99.248	138.99	5.8055	0.65217	0.91892	235.85	8.6847	1.1612e-05	0.014351	0
155.00	0.10000	2.4994	0.40009	99.903	139.91	5.8115	0.65212	0.91875	236.64	8.5862	1.1681e-05	0.014441	0
156.00	0.10000	2.4831	0.40273	100.56	140.83	5.8174	0.65207	0.91859	237.41	8.4895	1.1749e-05	0.014532	0
157.00	0.10000	2.4670	0.40536	101.21	141.75	5.8233	0.65203	0.91843	238.19	8.3946	1.1817e-05	0.014622	0
158.00	0.10000	2.4510	0.40799	101.87	142.67	5.8291	0.65198	0.91827	238.97	8.3014	1.1886e-05	0.014712	0
159.00	0.10000	2.4353	0.41062	102.52	143.59	5.8349	0.65194	0.91812	239.74	8.2099	1.1954e-05	0.014802	0
160.00	0.10000	2.4199	0.41325	103.18	144.50	5.8406	0.65190	0.91797	240.51	8.1200	1.2021e-05	0.014892	0
161.00	0.10000	2.4046	0.41588	103.83	145.42	5.8464	0.65186	0.91783	241.27	8.0318	1.2089e-05	0.014982	0
162.00	0.10000	2.3895	0.41851	104.49	146.34	5.8520	0.65182	0.91769	242.03	7.9452	1.2157e-05	0.015071	0
163.00	0.10000	2.3745	0.42113	105.14	147.26	5.8577	0.65178	0.91756	242.80	7.8600	1.2225e-05	0.015161	0
164.00	0.10000	2.3598	0.42376	105.80	148.18	5.8633	0.65175	0.91742	243.55	7.7764	1.2292e-05	0.015250	0
165.00	0.10000	2.3453	0.42639	106.45	149.09	5.8689	0.65171	0.91730	244.31	7.6942	1.2359e-05	0.015340	0
166.00	0.10000	2.3309	0.42902	107.11	150.01	5.8744	0.65168	0.91717	245.06	7.6135	1.2427e-05	0.015429	0
167.00	0.10000	2.3167	0.43164	107.76	150.93	5.8799	0.65165	0.91705	245.81	7.5341	1.2494e-05	0.015518	0
168.00	0.10000	2.3027	0.43427	108.42	151.84	5.8854	0.65162	0.91693	246.56	7.4561	1.2561e-05	0.015607	0
169.00	0.10000	2.2889	0.43689	109.07	152.76	5.8909	0.65159	0.91682	247.31	7.3794	1.2628e-05	0.015696	0
170.00	0.10000	2.2752	0.43952	109.73	153.68	5.8963	0.65156	0.91671	248.05	7.3040	1.2695e-05	0.015785	0
171.00	0.10000	2.2617	0.44214	110.38	154.59	5.9016	0.65153	0.91660	248.79	7.2299	1.2761e-05	0.015874	0
172.00	0.10000	2.2484	0.44477	111.03	155.51	5.9070	0.65150	0.91649	249.53	7.1569	1.2828e-05	0.015962	0
173.00	0.10000	2.2352	0.44739	111.69	156.43	5.9123	0.65148	0.91639	250.27	7.0852	1.2894e-05	0.016051	0
174.00	0.10000	2.2222	0.45001	112.34	157.34	5.9176	0.65146	0.91629	251.00	7.0146	1.2961e-05	0.016139	0
175.00	0.10000	2.2093	0.45264	113.00	158.26	5.9228	0.65143	0.91619	251.73	6.9452	1.3027e-05	0.016227	0
176.00	0.10000	2.1965	0.45526	113.65	159.18	5.9280	0.65141	0.91610	252.46	6.8769	1.3093e-05	0.016316	0
177.00	0.10000	2.1840	0.45788	114.30	160.09	5.9332	0.65139	0.91601	253.19	6.8097	1.3159e-05	0.016404	0
178.00	0.10000	2.1715	0.46050	114.96	161.01	5.9384	0.65138	0.91592	253.91	6.7436	1.3225e-05	0.016492	0
179.00	0.10000	2.1592	0.46313	115.61	161.92	5.9435	0.65136	0.91584	254.64	6.6785	1.3291e-05	0.016580	0
180.00	0.10000	2.1471	0.46575	116.26	162.84	5.9486	0.65134	0.91575	255.36	6.6144	1.3357e-05	0.016667	0
181.00	0.10000	2.1351	0.46837	116.92	163.76	5.9537	0.65133	0.91567	256.08	6.5513	1.3422e-05	0.016755	0
182.00	0.10000	2.1232	0.47099	117.57	164.67	5.9587	0.65131	0.91560	256.79	6.4891	1.3488e-05	0.016843	0
183.00	0.10000	2.1114	0.47361	118.23	165.59	5.9638	0.65130	0.91552	257.51	6.4279	1.3553e-05	0.016930	0
184.00	0.10000	2.0998	0.47623	118.88	166.50	5.9688	0.65129	0.91545	258.22	6.3677	1.3619e-05	0.017017	0
185.00	0.10000	2.0883	0.47885	119.53	167.42	5.9737	0.65128	0.91538	258.93	6.3083	1.3684e-05	0.017105	0
186.00	0.10000	2.0770	0.48147	120.19	168.33	5.9786	0.65127	0.91531	259.64	6.2498	1.3749e-05	0.017192	0
187.00	0.10000	2.0657	0.48409	120.84	169.25	5.9836	0.65126	0.91524	260.34	6.1922	1.3814e-05	0.017279	0
188.00	0.10000	2.0546	0.48671	121.49	170.16	5.9884	0.65125	0.91518	261.05	6.1354	1.3879e-05	0.017366	0
189.00	0.10000	2.0436	0.48933	122.15	171.08	5.9933	0.65125	0.91512	261.75	6.0795	1.3944e-05	0.017453	0
190.00	0.10000	2.0328	0.49194	122.80	171.99	5.9981	0.65124	0.91506	262.45	6.0244	1.4008e-05	0.017540	0
191.00	0.10000	2.0220	0.49456	123.45	172.91	6.0029	0.65124	0.91500	263.15	5.9700	1.4073e-05	0.017626	0
192.00	0.10000	2.0113	0.49718	124.11	173.82	6.0077	0.65123	0.91495	263.84	5.9165	1.4137e-05	0.017713	0
193.00	0.10000	2.0008	0.49980	124.76	174.74	6.0125	0.65123	0.91490	264.54	5.8637	1.4202e-05	0.017799	0
194.00	0.10000	1.9904	0.50241	125.41	175.65	6.0172	0.65123	0.91485	265.23	5.8116	1.4266e-05	0.017886	0
195.00	0.10000	1.9801	0.50503	126.07	176.57	6.0219	0.65123	0.91480	265.92	5.7603	1.4330e-05	0.017972	0
196.00	0.10000	1.9699	0.50765	126.72	177.48	6.0266	0.65123	0.91475	266.61	5.7096	1.4394e-05	0.018058	0
197.00	0.10000	1.9598	0.51026	127.37	178.40	6.0312	0.65124	0.91471	267.29	5.6597	1.4458e-05	0.018144	0
198.00	0.10000	1.9498	0.51288	128.02	179.31	6.0359	0.65124	0.91466	267.98	5.6104	1.4522e-05	0.018231	0
199.00	0.10000	1.9399	0.51550	128.68	180.23	6.0405	0.65124	0.91462	268.66	5.5619	1.4586e-05	0.018316	0
200.00	0.10000	1.9301	0.51811	129.33	181.14	6.0450	0.65125	0.91458	269.34	5.5139	1.4649e-05	0.018402	0
201.00	0.10000	1.9204	0.52073	129.98	182.06	6.0496	0.65126	0.91455	270.02	5.4666	1.4713e-05	0.018488	0
202.00	0.10000	1.9108	0.52334	130.64	182.97	6.0541	0.65127	0.91451	270.69	5.4200	1.4776e-05	0.018574	0
203.00	0.10000	1.9013	0.52596	131.29	183.89	6.0587	0.65128	0.91448	271.37	5.3739	1.4840e-05	0.018659	0
204.00	0.10000	1.8919	0.52857	131.94	184.80	6.0632	0.65129	0.91445	272.04	5.3285	1.4903e-05	0.018745	0
205.00	0.10000	1.8826	0.53119	132.60	185.71	6.0676	0.65130	0.91442	272.71	5.2836	1.4966e-05	0.018830	0
206.00	0.10000	1.8733	0.53380	133.25	186.63	6.0721	0.65131	0.91439	273.38	5.2394	1.5029e-05	0.018916	0
207.00	0.10000	1.8642	0.53642	133.90	187.54	6.0765	0.65132	0.91437	274.05	5.1957	1.5092e-05	0.019001	0
208.00	0.10000	1.8552	0.53903	134.55	188.46	6.0809	0.65134	0.91435	274.72	5.1525	1.5155e-05	0.019086	0
209.00	0.10000	1.8462	0.54165	135.21	189.37	6.0853	0.65136	0.91433	275.38	5.1099	1.5218e-05	0.019171	0
210.00	0.10000	1.8374	0.54426	135.86	190.29	6.0897	0.65137	0.91431	276.05	5.0678	1.5281e-05	0.019256	0
211.00	0.10000	1.8286	0.54687	136.51	191.20	6.0940	0.65139	0.91429	276.71	5.0263	1.5343e-05	0.019341	0
212.00	0.10000	1.8199	0.54949	137.17	192.11	6.0983	0.65141	0.91427	277.37	4.9853	1.5406e-05	0.019426	0
213.00	0.10000	1.8113	0.55210	137.82	193.03	6.1026	0.65143	0.91426	278.02	4.9447	1.5468e-05	0.019510	0
214.00	0.10000	1.8027	0.55471	138.47	193.94	6.1069	0.65146	0.91425	278.68	4.9047	1.5530e-05	0.019595	0
215.00	0.10000	1.7943	0.55733	139.12	194.86	6.1112	0.65148	0.91424	279.33	4.8652	1.5593e-05	0.019680	0
216.00	0.10000	1.7859	0.55994	139.78	195.77	6.1154	0.65150	0.91423	279.99	4.8261	1.5655e-05	0.019764	0
217.00	0.10000	1.7776	0.56255	140.43	196.69	6.1196	0.65153	0.91422	280.64	4.7875	1.5717e-05	0.019849	0
218.00	0.10000	1.7694	0.56517	141.08	197.60	6.1238	0.65156	0.91421	281.29	4.7494	1.5779e-05	0.019933	0
219.00	0.10000	1.7613	0.56778	141.74	198.51	6.1280	0.65158	0.91421	281.93	4.7117	1.5840e-05	0.020017	0
220.00	0.10000	1.7532	0.57039	142.39	199.43	6.1322	0.65161	0.91421	282.58	4.6744	1.5902e-05	0.020101	0
221.00	0.10000	1.7452	0.57300	143.04	200.34	6.1363	0.65165	0.91421	283.22	4.6376	1.5964e-05	0.020185	0
222.00	0.10000	1.7373	0.57561	143.70	201.26	6.1405	0.65168	0.91421	283.87	4.6013	1.6025e-05	0.020269	0
223.00	0.10000	1.7294	0.57823	144.35	202.17	6.1446	0.65171	0.91422	284.51	4.5653	1.6087e-05	0.020353	0
224.00	0.10000	1.7217	0.58084	145.00	203.09	6.1487	0.65175	0.91422	285.15	4.5297	1.6148e-05	0.020437	0
225.00	0.10000	1.7139	0.58345	145.65	204.00	6.1527	0.65178	0.91423	285.79	4.4946	1.6209e-05	0.020521	0
226.00	0.10000	1.7063	0.58606	146.31	204.91	6.1568	0.65182	0.91424	286.42	4.4599	1.6270e-05	0.020605	0
227.00	0.10000	1.6987	0.58867	146.96	205.83	6.1608	0.65186	0.91425	287.06	4.4255	1.6331e-05	0.020688	0
228.00	0.10000	1.6912	0.59128	147.61	206.74	6.1648	0.65190	0.91426	287.69	4.3915	1.6392e-05	0.020772	0
229.00	0.10000	1.6838	0.59389	148.27	207.66	6.1688	0.65194	0.91428	288.32	4.3579	1.6453e-05	0.020856	0
230.00	0.10000	1.6764	0.59650	148.92	208.57	6.1728	0.65198	0.91429	288.95	4.3247	1.6514e-05	0.020939	0
231.00	0.10000	1.6691	0.59911	149.57	209.49	6.1768	0.65203	0.91431	289.58	4.2919	1.6575e-05	0.021022	0
232.00	0.10000	1.6619	0.60172	150.23	210.40	6.1807	0.65207	0.91433	290.21	4.2594	1.6635e-05	0.021106	0
233.00	0.10000	1.6547	0.60433	150.88	211.31	6.1847	0.65212	0.91435	290.83	4.2272	1.6696e-05	0.021189	0
234.00	0.10000	1.6476	0.60695	151.53	212.23	6.1886	0.65217	0.91437	291.46	4.1954	1.6756e-05	0.021272	0
235.00	0.10000	1.6405	0.60956	152.19	213.14	6.1925	0.65222	0.91440	292.08	4.1640	1.6817e-05	0.021355	0
236.00	0.10000	1.6335	0.61217	152.84	214.06	6.1964	0.65227	0.91443	292.70	4.1329	1.6877e-05	0.021438	0
237.00	0.10000	1.6266	0.61478	153.49	214.97	6.2002	0.65232	0.91445	293.32	4.1021	1.6937e-05	0.021521	0
238.00	0.10000	1.6197	0.61738	154.15	215.89	6.2041	0.65237	0.91448	293.94	4.0716	1.6997e-05	0.021604	0
239.00	0.10000	1.6129	0.61999	154.80	216.80	6.2079	0.65243	0.91452	294.56	4.0414	1.7057e-05	0.021687	0
240.00	0.10000	1.6062	0.62260	155.45	217.71	6.2117	0.65248	0.91455	295.17	4.0116	1.7117e-05	0.021770	0
241.00	0.10000	1.5995	0.62521	156.11	218.63	6.2155	0.65254	0.91459	295.79	3.9821	1.7177e-05	0.021853	0
242.00	0.10000	1.5928	0.62782	156.76	219.54	6.2193	0.65260	0.91462	296.40	3.9529	1.7237e-05	0.021935	0
243.00	0.10000	1.5862	0.63043	157.42	220.46	6.2231	0.65266	0.91466	297.01	3.9240	1.7296e-05	0.022018	0
244.00	0.10000	1.5797	0.63304	158.07	221.37	6.2269	0.65272	0.91470	297.62	3.8953	1.7356e-05	0.022101	0
245.00	0.10000	1.5732	0.63565	158.72	222.29	6.2306	0.65279	0.91475	298.23	3.8670	1.7415e-05	0.022183	0
246.00	0.10000	1.5668	0.63826	159.38	223.20	6.2343	0.65285	0.91479	298.84	3.8389	1.7475e-05	0.022266	0
247.00	0.10000	1.5604	0.64087	160.03	224.12	6.2380	0.65292	0.91484	299.44	3.8112	1.7534e-05	0.022348	0
248.00	0.10000	1.5541	0.64348	160.68	225.03	6.2417	0.65299	0.91488	300.05	3.7837	1.7593e-05	0.022430	0
249.00	0.10000	1.5478	0.64609	161.34	225.95	6.2454	0.65306	0.91493	300.65	3.7565	1.7652e-05	0.022513	0
250.00	0.10000	1.5416	0.64869	161.99	226.86	6.2491	0.65313	0.91499	301.25	3.7295	1.7711e-05	0.022595	0
251.00	0.10000	1.5354	0.65130	162.65	227.78	6.2527	0.65320	0.91504	301.85	3.7028	1.7770e-05	0.022677	0
252.00	0.10000	1.5293	0.65391	163.30	228.69	6.2564	0.65328	0.91509	302.45	3.6764	1.7829e-05	0.022759	0
253.00	0.10000	1.5232	0.65652	163.96	229.61	6.2600	0.65335	0.91515	303.05	3.6502	1.7888e-05	0.022841	0
254.00	0.10000	1.5172	0.65913	164.61	230.52	6.2636	0.65343	0.91521	303.64	3.6243	1.7947e-05	0.022923	0
255.00	0.10000	1.5112	0.66173	165.26	231.44	6.2672	0.65351	0.91527	304.24	3.5987	1.8005e-05	0.023005	0
256.00	0.10000	1.5052	0.66434	165.92	232.35	6.2708	0.65359	0.91533	304.83	3.5732	1.8064e-05	0.023087	0
257.00	0.10000	1.4994	0.66695	166.57	233.27	6.2744	0.65367	0.91540	305.43	3.5480	1.8122e-05	0.023169	0
258.00	0.10000	1.4935	0.66956	167.23	234.18	6.2779	0.65375	0.91546	306.02	3.5231	1.8181e-05	0.023251	0
259.00	0.10000	1.4877	0.67217	167.88	235.10	6.2815	0.65384	0.91553	306.61	3.4984	1.8239e-05	0.023333	0
260.00	0.10000	1.4820	0.67477	168.54	236.02	6.2850	0.65393	0.91560	307.19	3.4739	1.8297e-05	0.023415	0
261.00	0.10000	1.4763	0.67738	169.19	236.93	6.2885	0.65401	0.91567	307.78	3.4497	1.8355e-05	0.023496	0
262.00	0.10000	1.4706	0.67999	169.85	237.85	6.2920	0.65410	0.91574	308.37	3.4257	1.8413e-05	0.023578	0
263.00	0.10000	1.4650	0.68260	170.50	238.76	6.2955	0.65420	0.91582	308.95	3.4019	1.8471e-05	0.023660	0
264.00	0.10000	1.4594	0.68520	171.16	239.68	6.2990	0.65429	0.91590	309.53	3.3783	1.8529e-05	0.023741	0
265.00	0.10000	1.4539	0.68781	171.81	240.59	6.3024	0.65438	0.91597	310.12	3.3549	1.8587e-05	0.023823	0
266.00	0.10000	1.4484	0.69042	172.47	241.51	6.3059	0.65448	0.91606	310.70	3.3318	1.8645e-05	0.023904	0
267.00	0.10000	1.4430	0.69302	173.12	242.43	6.3093	0.65458	0.91614	311.28	3.3088	1.8702e-05	0.023986	0
268.00	0.10000	1.4375	0.69563	173.78	243.34	6.3127	0.65468	0.91622	311.85	3.2861	1.8760e-05	0.024067	0
269.00	0.10000	1.4322	0.69824	174.43	244.26	6.3162	0.65478	0.91631	312.43	3.2635	1.8817e-05	0.024149	0
270.00	0.10000	1.4269	0.70084	175.09	245.17	6.3196	0.65488	0.91640	313.01	3.2412	1.8875e-05	0.024230	0
271.00	0.10000	1.4216	0.70345	175.75	246.09	6.3229	0.65499	0.91648	313.58	3.2191	1.8932e-05	0.024311	0
272.00	0.10000	1.4163	0.70606	176.40	247.01	6.3263	0.65509	0.91658	314.15	3.1971	1.8989e-05	0.024393	0
273.00	0.10000	1.4111	0.70866	177.06	247.92	6.3297	0.65520	0.91667	314.73	3.1754	1.9046e-05	0.024474	0
274.00	0.10000	1.4059	0.71127	177.71	248.84	6.3330	0.65531	0.91676	315.30	3.1538	1.9103e-05	0.024555	0
275.00	0.10000	1.4008	0.71388	178.37	249.76	6.3364	0.65542	0.91686	315.87	3.1325	1.9160e-05	0.024636	0
276.00	0.10000	1.3957	0.71648	179.03	250.67	6.3397	0.65553	0.91696	316.43	3.1113	1.9217e-05	0.024717	0
277.00	0.10000	1.3906	0.71909	179.68	251.59	6.3430	0.65565	0.91706	317.00	3.0903	1.9274e-05	0.024799	0
278.00	0.10000	1.3856	0.72170	180.34	252.51	6.3463	0.65576	0.91716	317.57	3.0695	1.9331e-05	0.024880	0
279.00	0.10000	1.3806	0.72430	181.00	253.43	6.3496	0.65588	0.91727	318.13	3.0489	1.9388e-05	0.024961	0
280.00	0.10000	1.3757	0.72691	181.65	254.34	6.3529	0.65600	0.91737	318.69	3.0284	1.9444e-05	0.025042	0
281.00	0.10000	1.3708	0.72951	182.31	255.26	6.3562	0.65612	0.91748	319.26	3.0081	1.9501e-05	0.025123	0
282.00	0.10000	1.3659	0.73212	182.97	256.18	6.3594	0.65624	0.91759	319.82	2.9880	1.9557e-05	0.025204	0
283.00	0.10000	1.3611	0.73473	183.62	257.10	6.3627	0.65637	0.91770	320.38	2.9681	1.9614e-05	0.025285	0
284.00	0.10000	1.3562	0.73733	184.28	258.01	6.3659	0.65649	0.91781	320.94	2.9483	1.9670e-05	0.025366	0
285.00	0.10000	1.3515	0.73994	184.94	258.93	6.3691	0.65662	0.91793	321.49	2.9287	1.9726e-05	0.025446	0
286.00	0.10000	1.3467	0.74254	185.60	259.85	6.3724	0.65675	0.91804	322.05	2.9092	1.9782e-05	0.025527	0
287.00	0.10000	1.3420	0.74515	186.25	260.77	6.3756	0.65688	0.91816	322.61	2.8899	1.9839e-05	0.025608	0
288.00	0.10000	1.3373	0.74775	186.91	261.69	6.3788	0.65701	0.91828	323.16	2.8708	1.9895e-05	0.025689	0
289.00	0.10000	1.3327	0.75036	187.57	262.60	6.3819	0.65714	0.91841	323.71	2.8518	1.9950e-05	0.025770	0
290.00	0.10000	1.3281	0.75296	188.23	263.52	6.3851	0.65728	0.91853	324.27	2.8330	2.0006e-05	0.025850	0
291.00	0.10000	1.3235	0.75557	188.88	264.44	6.3883	0.65742	0.91866	324.82	2.8144	2.0062e-05	0.025931	0
292.00	0.10000	1.3190	0.75818	189.54	265.36	6.3914	0.65756	0.91878	325.37	2.7958	2.0118e-05	0.026012	0
293.00	0.10000	1.3144	0.76078	190.20	266.28	6.3946	0.65770	0.91891	325.91	2.7775	2.0174e-05	0.026093	0
294.00	0.10000	1.3100	0.76339	190.86	267.20	6.3977	0.65784	0.91904	326.46	2.7593	2.0229e-05	0.026173	0
295.00	0.10000	1.3055	0.76599	191.52	268.12	6.4008	0.65798	0.91918	327.01	2.7412	2.0285e-05	0.026254	0
296.00	0.10000	1.3011	0.76860	192.18	269.04	6.4039	0.65813	0.91931	327.55	2.7233	2.0340e-05	0.026335	0
297.00	0.10000	1.2967	0.77120	192.84	269.96	6.4070	0.65827	0.91945	328.10	2.7055	2.0395e-05	0.026415	0
298.00	0.10000	1.2923	0.77381	193.49	270.88	6.4101	0.65842	0.91958	328.64	2.6879	2.0451e-05	0.026496	0
299.00	0.10000	1.2880	0.77641	194.15	271.80	6.4132	0.65857	0.91972	329.18	2.6704	2.0506e-05	0.026576	0
300.00	0.10000	1.2837	0.77902	194.81	272.71	6.4163	0.65873	0.91987	329.72	2.6530	2.0561e-05	0.026657	0
301.00	0.10000	1.2794	0.78162	195.47	273.63	6.4193	0.65888	0.92001	330.26	2.6358	2.0616e-05	0.026737	0
302.00	0.10000	1.2751	0.78423	196.13	274.55	6.4224	0.65903	0.92015	330.80	2.6187	2.0671e-05	0.026818	0
303.00	0.10000	1.2709	0.78683	196.79	275.48	6.4254	0.65919	0.92030	331.34	2.6018	2.0726e-05	0.026898	0
304.00	0.10000	1.2667	0.78944	197.45	276.40	6.4285	0.65935	0.92045	331.88	2.5849	2.0781e-05	0.026979	0
305.00	0.10000	1.2626	0.79204	198.11	277.32	6.4315	0.65951	0.92060	332.41	2.5682	2.0836e-05	0.027059	0
306.00	0.10000	1.2584	0.79464	198.77	278.24	6.4345	0.65967	0.92075	332.95	2.5517	2.0890e-05	0.027140	0
307.00	0.10000	1.2543	0.79725	199.43	279.16	6.4375	0.65984	0.92091	333.48	2.5352	2.0945e-05	0.027220	0
308.00	0.10000	1.2502	0.79985	200.09	280.08	6.4405	0.66000	0.92106	334.01	2.5189	2.1000e-05	0.027301	0
309.00	0.10000	1.2462	0.80246	200.75	281.00	6.4435	0.66017	0.92122	334.54	2.5027	2.1054e-05	0.027381	0
310.00	0.10000	1.2421	0.80506	201.41	281.92	6.4465	0.66034	0.92138	335.07	2.4867	2.1108e-05	0.027462	0
311.00	0.10000	1.2381	0.80767	202.08	282.84	6.4494	0.66050	0.92154	335.60	2.4707	2.1163e-05	0.027542	0
312.00	0.10000	1.2342	0.81027	202.74	283.76	6.4524	0.66068	0.92170	336.13	2.4549	2.1217e-05	0.027622	0
313.00	0.10000	1.2302	0.81288	203.40	284.69	6.4553	0.66085	0.92186	336.66	2.4392	2.1271e-05	0.027703	0
314.00	0.10000	1.2263	0.81548	204.06	285.61	6.4583	0.66102	0.92203	337.18	2.4236	2.1325e-05	0.027783	0
315.00	0.10000	1.2224	0.81808	204.72	286.53	6.4612	0.66120	0.92220	337.71	2.4082	2.1380e-05	0.027863	0
316.00	0.10000	1.2185	0.82069	205.38	287.45	6.4641	0.66138	0.92237	338.23	2.3928	2.1434e-05	0.027944	0
317.00	0.10000	1.2146	0.82329	206.05	288.37	6.4670	0.66156	0.92254	338.75	2.3776	2.1488e-05	0.028024	0
318.00	0.10000	1.2108	0.82590	206.71	289.30	6.4700	0.66174	0.92271	339.28	2.3625	2.1541e-05	0.028104	0
319.00	0.10000	1.2070	0.82850	207.37	290.22	6.4728	0.66192	0.92288	339.80	2.3474	2.1595e-05	0.028185	0
320.00	0.10000	1.2032	0.83110	208.03	291.14	6.4757	0.66210	0.92306	340.32	2.3325	2.1649e-05	0.028265	0
321.00	0.10000	1.1995	0.83371	208.70	292.07	6.4786	0.66229	0.92324	340.84	2.3178	2.1703e-05	0.028345	0
322.00	0.10000	1.1957	0.83631	209.36	292.99	6.4815	0.66248	0.92341	341.35	2.3031	2.1756e-05	0.028426	0
323.00	0.10000	1.1920	0.83892	210.02	293.91	6.4844	0.66267	0.92359	341.87	2.2885	2.1810e-05	0.028506	0
324.00	0.10000	1.1883	0.84152	210.68	294.84	6.4872	0.66286	0.92378	342.39	2.2740	2.1863e-05	0.028586	0
325.00	0.10000	1.1847	0.84412	211.35	295.76	6.4901	0.66305	0.92396	342.90	2.2597	2.1917e-05	0.028666	0
326.00	0.10000	1.1810	0.84673	212.01	296.68	6.4929	0.66324	0.92415	343.42	2.2454	2.1970e-05	0.028747	0
327.00	0.10000	1.1774	0.84933	212.68	297.61	6.4957	0.66343	0.92433	343.93	2.2312	2.2023e-05	0.028827	0
328.00	0.10000	1.1738	0.85193	213.34	298.53	6.4985	0.66363	0.92452	344.44	2.2172	2.2077e-05	0.028907	0
329.00	0.10000	1.1702	0.85454	214.00	299.46	6.5014	0.66383	0.92471	344.95	2.2032	2.2130e-05	0.028987	0
330.00	0.10000	1.1667	0.85714	214.67	300.38	6.5042	0.66403	0.92490	345.46	2.1894	2.2183e-05	0.029068	0
331.00	0.10000	1.1631	0.85974	215.33	301.31	6.5070	0.66423	0.92510	345.97	2.1756	2.2236e-05	0.029148	0
332.00	0.10000	1.1596	0.86235	216.00	302.23	6.5098	0.66443	0.92529	346.48	2.1619	2.2289e-05	0.029228	0
333.00	0.10000	1.1561	0.86495	216.66	303.16	6.5125	0.66463	0.92549	346.99	2.1484	2.2342e-05	0.029308	0
334.00	0.10000	1.1527	0.86755	217.33	304.08	6.5153	0.66484	0.92568	347.50	2.1349	2.2395e-05	0.029389	0
335.00	0.10000	1.1492	0.87016	217.99	305.01	6.5181	0.66505	0.92588	348.00	2.1215	2.2447e-05	0.029469	0
336.00	0.10000	1.1458	0.87276	218.66	305.94	6.5208	0.66525	0.92608	348.51	2.1082	2.2500e-05	0.029549	0
337.00	0.10000	1.1424	0.87536	219.33	306.86	6.5236	0.66546	0.92629	349.01	2.0951	2.2553e-05	0.029629	0
338.00	0.10000	1.1390	0.87797	219.99	307.79	6.5263	0.66567	0.92649	349.51	2.0820	2.2605e-05	0.029710	0
339.00	0.10000	1.1356	0.88057	220.66	308.71	6.5291	0.66589	0.92670	350.01	2.0690	2.2658e-05	0.029790	0
340.00	0.10000	1.1323	0.88317	221.32	309.64	6.5318	0.66610	0.92690	350.52	2.0560	2.2710e-05	0.029870	0
341.00	0.10000	1.1290	0.88578	221.99	310.57	6.5345	0.66631	0.92711	351.02	2.0432	2.2763e-05	0.029950	0
342.00	0.10000	1.1256	0.88838	222.66	311.50	6.5372	0.66653	0.92732	351.52	2.0305	2.2815e-05	0.030030	0
343.00	0.10000	1.1224	0.89098	223.32	312.42	6.5400	0.66675	0.92753	352.01	2.0178	2.2867e-05	0.030111	0
344.00	0.10000	1.1191	0.89359	223.99	313.35	6.5427	0.66697	0.92774	352.51	2.0053	2.2919e-05	0.030191	0
345.00	0.10000	1.1158	0.89619	224.66	314.28	6.5454	0.66719	0.92796	353.01	1.9928	2.2972e-05	0.030271	0
346.00	0.10000	1.1126	0.89879	225.33	315.21	6.5480	0.66741	0.92817	353.50	1.9804	2.3024e-05	0.030351	0
347.00	0.10000	1.1094	0.90140	226.00	316.13	6.5507	0.66763	0.92839	354.00	1.9681	2.3076e-05	0.030432	0
348.00	0.10000	1.1062	0.90400	226.66	317.06	6.5534	0.66786	0.92861	354.49	1.9559	2.3128e-05	0.030512	0
349.00	0.10000	1.1030	0.90660	227.33	317.99	6.5561	0.66808	0.92883	354.98	1.9437	2.3179e-05	0.030592	0
350.00	0.10000	1.0999	0.90920	228.00	318.92	6.5587	0.66831	0.92905	355.48	1.9317	2.3231e-05	0.030672	0
